:PLASMA GEOMETRY 
Vacuum Toroidal magnetic field at R=1.69550002m [Tesla]
    1.6621763429999998
Geometric Center Major radius [m]
    1.69550002
Minor radius [m]
    0.7936953550739217
Avg. Elongation
    NA
Avg. Top/Bottom Triangularity
    NA
Main Contaminant Species
    NA
Main Ion Species mass/proton mass
    2.00000
TRYING TO GET TO BETA(0)=NA , Rmax=NA


# Rho(norml. sqrt. toroid. flux), q, Beam Ion Density(10^13 cm^-3), Ion Density(10^13 cm^-3), Elec Density(10^13 cm^-3), Impurity Density(10^13 cm^-3), Beam Ion Effective Temp(keV), Ion Temp(keV), Electron Temp(keV), Beam Pressure(kPa), Thermal Pressure(kPa), Equil.Pressure(kPa), Zeff, Tor Rot(kHz), Tor Rot(10^5 m/s), RF Ion Density(10^13 cm^-3), RF Ion Effective Temp(keV), RF Pressure(kPa)
0.00000 1.49597 0.84074 5.15624 6.00000 0.00000 23.69500 5.82961 5.92375 31.91808 48.16033 80.80413 1.00000 0.00000 0.00000 0.00302 150.00000 0.72572
0.00331 1.49642 0.84035 5.15505 5.99973 0.00000 23.69360 5.82791 5.92340 31.90131 48.13510 81.07659 1.00000 0.00000 0.00000 0.00433 150.00000 1.04018
0.00662 1.49704 0.83924 5.15412 5.99945 0.00000 23.69220 5.82620 5.92305 31.85724 48.11230 81.43495 1.00000 0.00000 0.00000 0.00610 150.00000 1.46542
0.00993 1.49781 0.83751 5.15323 5.99918 0.00000 23.69080 5.82449 5.92270 31.78953 48.08993 81.90869 1.00000 0.00000 0.00000 0.00844 150.00000 2.02924
0.01324 1.49873 0.83525 5.15217 5.99890 0.00000 23.68940 5.82278 5.92235 31.70186 48.06592 82.52977 1.00000 0.00000 0.00000 0.01149 150.00000 2.76199
0.01656 1.49980 0.83256 5.15070 5.99863 0.00000 23.68800 5.82108 5.92200 31.59791 48.03814 83.33118 1.00000 0.00000 0.00000 0.01538 150.00000 3.69513
0.01987 1.50101 0.82953 5.14860 5.99836 0.00000 23.68660 5.81937 5.92165 31.48135 48.00451 84.34496 1.00000 0.00000 0.00000 0.02022 150.00000 4.85910
0.02318 1.50236 0.82628 5.14567 5.99808 0.00000 23.68520 5.81766 5.92130 31.35585 47.96310 85.59964 1.00000 0.00000 0.00000 0.02613 150.00000 6.28068
0.02649 1.50383 0.82273 5.14149 5.99744 0.00000 23.68190 5.81735 5.92047 31.21682 47.92154 87.12277 1.00000 0.00000 0.00000 0.03322 150.00000 7.98442
0.02980 1.50543 0.81743 5.13672 5.99613 0.00000 23.67515 5.81957 5.91879 31.00705 47.89534 88.99082 1.00000 0.00000 0.00000 0.04198 150.00000 10.08843
0.03311 1.50715 0.81062 5.12743 5.99481 0.00000 23.66841 5.82179 5.91710 30.73994 47.82698 92.20900 1.00000 0.00000 0.00000 0.05676 150.00000 13.64208
0.03642 1.50899 0.80308 5.09739 5.99350 0.00000 23.66166 5.82402 5.91541 30.44516 47.56492 100.36916 1.00000 0.00000 0.00000 0.09303 150.00000 22.35908
0.03973 1.51093 0.79558 5.04301 5.99218 0.00000 23.65491 5.82624 5.91373 30.15233 47.07546 114.14153 1.00000 0.00000 0.00000 0.15360 150.00000 36.91374
0.04304 1.51297 0.78853 5.01906 5.99026 0.00000 23.64500 5.83250 5.91125 29.87267 46.90221 120.67604 1.00000 0.00000 0.00000 0.18267 150.00000 43.90116
0.04635 1.51511 0.78133 5.05340 5.98810 0.00000 23.63392 5.84024 5.90848 29.58614 47.28592 113.73081 1.00000 0.00000 0.00000 0.15337 150.00000 36.85875
0.04967 1.51734 0.77395 5.08723 5.98595 0.00000 23.62284 5.84799 5.90571 29.29289 47.66560 106.94437 1.00000 0.00000 0.00000 0.12477 150.00000 29.98587
0.05298 1.51966 0.76639 5.09424 5.98380 0.00000 23.61176 5.85574 5.90294 28.99319 47.79452 106.38869 1.00000 0.00000 0.00000 0.12317 150.00000 29.60099
0.05629 1.52206 0.75865 5.09093 5.98157 0.00000 23.60023 5.86229 5.90006 28.68630 47.81689 108.22228 1.00000 0.00000 0.00000 0.13198 150.00000 31.71909
0.05960 1.52453 0.75078 5.08680 5.97860 0.00000 23.58491 5.85869 5.89623 28.37046 47.74878 110.00959 1.00000 0.00000 0.00000 0.14102 150.00000 33.89034
0.06291 1.52707 0.74301 5.08441 5.97564 0.00000 23.56959 5.85510 5.89240 28.05829 47.69705 111.37786 1.00000 0.00000 0.00000 0.14822 150.00000 35.62251
0.06622 1.52968 0.73531 5.08422 5.97268 0.00000 23.55427 5.85150 5.88857 27.74974 47.66601 112.22030 1.00000 0.00000 0.00000 0.15314 150.00000 36.80455
0.06953 1.53234 0.72771 5.08649 5.96971 0.00000 23.53895 5.84791 5.88474 27.44476 47.65796 112.47906 1.00000 0.00000 0.00000 0.15552 150.00000 37.37634
0.07284 1.53506 0.72018 5.09095 5.96637 0.00000 23.52164 5.84083 5.88041 27.14101 47.64202 112.09171 1.00000 0.00000 0.00000 0.15524 150.00000 37.30868
0.07615 1.53782 0.71274 5.09757 5.96262 0.00000 23.50217 5.82998 5.87554 26.83835 47.61539 111.05879 1.00000 0.00000 0.00000 0.15231 150.00000 36.60504
0.07946 1.54063 0.70538 5.10661 5.95887 0.00000 23.48271 5.81914 5.87068 26.53924 47.61105 109.45154 1.00000 0.00000 0.00000 0.14689 150.00000 35.30124
0.08278 1.54347 0.69810 5.11779 5.95513 0.00000 23.46325 5.80829 5.86581 26.24364 47.62636 107.33239 1.00000 0.00000 0.00000 0.13924 150.00000 33.46239
0.08609 1.54634 0.69090 5.13074 5.95138 0.00000 23.44378 5.79745 5.86095 25.95151 47.65777 104.78683 1.00000 0.00000 0.00000 0.12973 150.00000 31.17755
0.08940 1.54923 0.68379 5.14438 5.94697 0.00000 23.42085 5.78758 5.85521 25.65900 47.70312 101.91467 1.00000 0.00000 0.00000 0.11881 150.00000 28.55255
0.09271 1.55215 0.67675 5.15877 5.94246 0.00000 23.39733 5.77787 5.84933 25.36932 47.75634 98.82759 1.00000 0.00000 0.00000 0.10694 150.00000 25.70193
0.09602 1.55508 0.66978 5.17355 5.93795 0.00000 23.37382 5.76817 5.84345 25.08308 47.81264 95.63647 1.00000 0.00000 0.00000 0.09462 150.00000 22.74074
0.09933 1.55822 0.66290 5.18825 5.93344 0.00000 23.35030 5.75846 5.83758 24.80024 47.86788 92.44517 1.00000 0.00000 0.00000 0.08229 150.00000 19.77705
0.10264 1.56173 0.65609 5.20233 5.92876 0.00000 23.32587 5.74847 5.83147 24.51978 47.91450 89.34010 1.00000 0.00000 0.00000 0.07034 150.00000 16.90582
0.10595 1.56555 0.64935 5.21505 5.92351 0.00000 23.29837 5.73756 5.82459 24.23948 47.94048 86.38456 1.00000 0.00000 0.00000 0.05910 150.00000 14.20460
0.10926 1.56967 0.64269 5.22675 5.91826 0.00000 23.27087 5.72665 5.81772 23.96254 47.95665 83.65031 1.00000 0.00000 0.00000 0.04881 150.00000 11.73113
0.11258 1.57402 0.63611 5.23727 5.91300 0.00000 23.24338 5.71573 5.81084 23.68892 47.96163 81.17343 1.00000 0.00000 0.00000 0.03962 150.00000 9.52288
0.11589 1.57858 0.62959 5.24654 5.90775 0.00000 23.21588 5.70482 5.80397 23.41857 47.95479 78.97164 1.00000 0.00000 0.00000 0.03162 150.00000 7.59828
0.11920 1.58331 0.62315 5.25412 5.90206 0.00000 23.18601 5.69473 5.79650 23.14910 47.93904 77.04723 1.00000 0.00000 0.00000 0.02480 150.00000 5.95909
0.12251 1.58816 0.61678 5.26020 5.89609 0.00000 23.15459 5.68516 5.78865 22.88136 47.91392 75.38898 1.00000 0.00000 0.00000 0.01911 150.00000 4.59370
0.12582 1.59309 0.61048 5.26516 5.89011 0.00000 23.12318 5.67560 5.78080 22.61686 47.87843 73.97596 1.00000 0.00000 0.00000 0.01448 150.00000 3.48067
0.12913 1.59807 0.60424 5.26911 5.88414 0.00000 23.09177 5.66604 5.77294 22.35557 47.83367 72.78152 1.00000 0.00000 0.00000 0.01079 150.00000 2.59228
0.13244 1.60307 0.59808 5.27219 5.87817 0.00000 23.06035 5.65648 5.76509 22.09744 47.78086 71.77596 1.00000 0.00000 0.00000 0.00790 150.00000 1.89766
0.13575 1.60802 0.59198 5.27384 5.87150 0.00000 23.02515 5.64510 5.75629 21.83884 47.69966 70.90395 1.00000 0.00000 0.00000 0.00568 150.00000 1.36544
0.13906 1.61297 0.58596 5.27486 5.86483 0.00000 22.98989 5.63369 5.74747 21.58335 47.61244 70.16149 1.00000 0.00000 0.00000 0.00402 150.00000 0.96571
0.14237 1.61807 0.57999 5.27537 5.85815 0.00000 22.95462 5.62228 5.73865 21.33098 47.52062 69.52293 1.00000 0.00000 0.00000 0.00279 150.00000 0.67133
0.14569 1.62332 0.57410 5.27547 5.85148 0.00000 22.91935 5.61087 5.72984 21.08170 47.42514 68.96555 1.00000 0.00000 0.00000 0.00191 150.00000 0.45872
0.14900 1.62869 0.56827 5.27501 5.84456 0.00000 22.88273 5.59922 5.72068 20.83423 47.32248 68.46479 1.00000 0.00000 0.00000 0.00128 150.00000 0.30808
0.15231 1.63416 0.56250 5.27386 5.83721 0.00000 22.84367 5.58711 5.71092 20.58760 47.20986 68.00084 1.00000 0.00000 0.00000 0.00085 150.00000 0.20338
0.15562 1.63972 0.55680 5.27250 5.82985 0.00000 22.80461 5.57501 5.70115 20.34401 47.09547 67.57146 1.00000 0.00000 0.00000 0.00055 150.00000 0.13197
0.15893 1.64534 0.55116 5.27099 5.82249 0.00000 22.76554 5.56290 5.69139 20.10344 46.97971 67.16732 1.00000 0.00000 0.00000 0.00035 150.00000 0.08417
0.16224 1.65099 0.54558 5.26934 5.81514 0.00000 22.72648 5.55080 5.68162 19.86583 46.86284 66.78144 1.00000 0.00000 0.00000 0.00022 150.00000 0.05277
0.16555 1.65667 0.54006 5.26710 5.80730 0.00000 22.68469 5.53949 5.67117 19.62879 46.74746 66.40877 1.00000 0.00000 0.00000 0.00014 150.00000 0.03251
0.16886 1.66234 0.53461 5.26460 5.79928 0.00000 22.64190 5.52846 5.66047 19.39384 46.63223 66.04576 1.00000 0.00000 0.00000 0.00008 150.00000 0.01969
0.17217 1.66803 0.52921 5.26201 5.79127 0.00000 22.59911 5.51744 5.64978 19.16182 46.51636 65.68991 1.00000 0.00000 0.00000 0.00005 150.00000 0.01172
0.17548 1.67382 0.52387 5.25935 5.78325 0.00000 22.55631 5.50641 5.63908 18.93268 46.39996 65.33950 1.00000 0.00000 0.00000 0.00003 150.00000 0.00686
0.17880 1.67967 0.51860 5.25656 5.77517 0.00000 22.51313 5.49533 5.62828 18.70607 46.28198 64.99200 1.00000 0.00000 0.00000 0.00002 150.00000 0.00395
0.18211 1.68556 0.51338 5.25313 5.76652 0.00000 22.46667 5.48380 5.61667 18.47960 46.15477 64.63660 1.00000 0.00000 0.00000 0.00001 150.00000 0.00223
0.18542 1.69149 0.50822 5.24964 5.75786 0.00000 22.42022 5.47227 5.60505 18.25597 46.02715 64.28436 1.00000 0.00000 0.00000 0.00001 150.00000 0.00124
0.18873 1.69743 0.50311 5.24610 5.74921 0.00000 22.37376 5.46074 5.59344 18.03515 45.89914 63.93497 1.00000 0.00000 0.00000 0.00000 150.00000 0.00068
0.19204 1.70336 0.49806 5.24249 5.74056 0.00000 22.32731 5.44921 5.58183 17.81711 45.77077 63.58824 1.00000 0.00000 0.00000 0.00000 150.00000 0.00036
0.19535 1.70927 0.49307 5.23854 5.73161 0.00000 22.27912 5.43700 5.56978 17.60043 45.63369 63.23430 1.00000 0.00000 0.00000 0.00000 150.00000 0.00019
0.19866 1.71515 0.48813 5.23420 5.72234 0.00000 22.22907 5.42405 5.55727 17.38503 45.48737 62.87250 1.00000 0.00000 0.00000 0.00000 150.00000 0.00010
0.20197 1.72103 0.48325 5.22982 5.71307 0.00000 22.17903 5.41110 5.54476 17.17235 45.34076 62.51316 1.00000 0.00000 0.00000 0.00000 150.00000 0.00005
0.20528 1.72690 0.47842 5.22538 5.70380 0.00000 22.12899 5.39815 5.53225 16.96237 45.19387 62.15626 1.00000 0.00000 0.00000 0.00000 150.00000 0.00003
0.20860 1.73278 0.47364 5.22089 5.69453 0.00000 22.07894 5.38520 5.51974 16.75504 45.04670 61.80176 1.00000 0.00000 0.00000 0.00000 150.00000 0.00001
0.21191 1.73866 0.46892 5.21583 5.68475 0.00000 22.02587 5.37196 5.50647 16.54807 44.89247 61.44055 1.00000 0.00000 0.00000 0.00000 150.00000 0.00001
0.21522 1.74453 0.46425 5.21064 5.67489 0.00000 21.97229 5.35868 5.49307 16.34336 44.73690 61.08026 1.00000 0.00000 0.00000 0.00000 150.00000 0.00000
0.21853 1.75040 0.45963 5.20540 5.66503 0.00000 21.91872 5.34540 5.47968 16.14126 44.58111 60.72237 1.00000 0.00000 0.00000 0.00000 150.00000 0.00000
0.22184 1.75627 0.45506 5.20011 5.65517 0.00000 21.86515 5.33211 5.46629 15.94173 44.42510 60.36684 1.00000 0.00000 0.00000 0.00000 150.00000 0.00000
0.22515 1.76218 0.45054 5.19463 5.64517 0.00000 21.81076 5.31868 5.45269 15.74417 44.26648 60.01065 1.00000 0.00000 0.00000 0.00000 150.00000 0.00000
0.22846 1.76816 0.44607 5.18867 5.63474 0.00000 21.75371 5.30474 5.43843 15.54722 44.09981 59.64703 1.00000 0.00000 0.00000 0.00000 150.00000 0.00000
0.23177 1.77416 0.44165 5.18265 5.62430 0.00000 21.69665 5.29081 5.42416 15.35280 43.93298 59.28578 1.00000 0.00000 0.00000 0.00000 150.00000 0.00000
0.23508 1.78012 0.43728 5.17659 5.61387 0.00000 21.63959 5.27687 5.40990 15.16087 43.76601 58.92689 1.00000 0.00000 0.00000 0.00000 150.00000 0.00000
0.23839 1.78598 0.43296 5.17048 5.60343 0.00000 21.58254 5.26294 5.39563 14.97141 43.59891 58.57032 1.00000 0.00000 0.00000 0.00000 150.00000 0.00000
0.24171 1.79169 0.42868 5.16398 5.59266 0.00000 21.52339 5.24846 5.38085 14.78295 43.42434 58.20730 1.00000 0.00000 0.00000 0.00000 150.00000 0.00000
0.24502 1.79719 0.42445 5.15723 5.58168 0.00000 21.46289 5.23363 5.36572 14.59600 43.24500 57.84101 1.00000 0.00000 0.00000 0.00000 150.00000 0.00001
0.24833 1.80251 0.42027 5.15042 5.57069 0.00000 21.40240 5.21880 5.35060 14.41147 43.06559 57.47708 1.00000 0.00000 0.00000 0.00000 150.00000 0.00002
0.25164 1.80770 0.41614 5.14357 5.55971 0.00000 21.34190 5.20397 5.33548 14.22933 42.88611 57.11551 1.00000 0.00000 0.00000 0.00000 150.00000 0.00006
0.25495 1.81277 0.41205 5.13668 5.54872 0.00000 21.28141 5.18914 5.32035 14.04955 42.70658 56.75629 1.00000 0.00000 0.00000 0.00000 150.00000 0.00016
0.25826 1.81774 0.40800 5.12923 5.53723 0.00000 21.21764 5.17358 5.30441 13.86994 42.51675 56.38708 1.00000 0.00000 0.00000 0.00000 150.00000 0.00039
0.26157 1.82262 0.40400 5.12172 5.52573 0.00000 21.15382 5.15801 5.28845 13.69265 42.32677 56.02028 1.00000 0.00000 0.00000 0.00000 150.00000 0.00087
0.26488 1.82742 0.40004 5.11417 5.51423 0.00000 21.09000 5.14244 5.27250 13.51766 42.13677 55.65628 1.00000 0.00000 0.00000 0.00001 150.00000 0.00185
0.26819 1.83218 0.39613 5.10658 5.50272 0.00000 21.02617 5.12686 5.25654 13.34495 41.94677 55.29545 1.00000 0.00000 0.00000 0.00002 150.00000 0.00374
0.27151 1.83694 0.39226 5.09876 5.49105 0.00000 20.96121 5.11118 5.24030 13.17377 41.75445 54.93536 1.00000 0.00000 0.00000 0.00003 150.00000 0.00715
0.27482 1.84164 0.38844 5.09059 5.47907 0.00000 20.89422 5.09531 5.22356 13.00356 41.55803 54.57454 1.00000 0.00000 0.00000 0.00005 150.00000 0.01294
0.27813 1.84623 0.38465 5.08235 5.46710 0.00000 20.82723 5.07943 5.20681 12.83558 41.36158 54.21934 1.00000 0.00000 0.00000 0.00009 150.00000 0.02218
0.28144 1.85064 0.38091 5.07406 5.45512 0.00000 20.76024 5.06356 5.19006 12.66980 41.16505 53.87082 1.00000 0.00000 0.00000 0.00015 150.00000 0.03598
0.28475 1.85481 0.37721 5.06571 5.44314 0.00000 20.69325 5.04769 5.17331 12.50619 40.96842 53.52986 1.00000 0.00000 0.00000 0.00023 150.00000 0.05524
0.28806 1.85868 0.37355 5.05697 5.43085 0.00000 20.62406 5.02058 5.15601 12.34341 40.67810 53.10181 1.00000 0.00000 0.00000 0.00033 150.00000 0.08030
0.29137 1.86234 0.36993 5.04806 5.41844 0.00000 20.55407 4.98942 5.13852 12.18229 40.35445 52.64725 1.00000 0.00000 0.00000 0.00046 150.00000 0.11051
0.29468 1.86581 0.36635 5.03909 5.40603 0.00000 20.48408 4.95827 5.12102 12.02330 40.03126 52.19851 1.00000 0.00000 0.00000 0.00060 150.00000 0.14396
0.29799 1.86915 0.36280 5.03008 5.39363 0.00000 20.41408 4.92712 5.10352 11.86640 39.70865 51.75258 1.00000 0.00000 0.00000 0.00074 150.00000 0.17753
0.30130 1.87238 0.35930 5.02101 5.38118 0.00000 20.34378 4.89768 5.08595 11.71138 39.40020 51.31884 1.00000 0.00000 0.00000 0.00086 150.00000 0.20726
0.30462 1.87553 0.35584 5.01160 5.36839 0.00000 20.27098 4.88198 5.06775 11.55699 39.20026 50.98630 1.00000 0.00000 0.00000 0.00095 150.00000 0.22905
0.30793 1.87867 0.35241 5.00219 5.35560 0.00000 20.19819 4.86628 5.04955 11.40464 39.00085 50.64513 1.00000 0.00000 0.00000 0.00100 150.00000 0.23964
0.31124 1.88181 0.34903 4.99280 5.34281 0.00000 20.12539 4.85058 5.03135 11.25431 38.80204 50.29369 1.00000 0.00000 0.00000 0.00099 150.00000 0.23734
0.31455 1.88488 0.34568 4.98342 5.33002 0.00000 20.05259 4.83489 5.01315 11.10596 38.60382 49.93231 1.00000 0.00000 0.00000 0.00093 150.00000 0.22253
0.31786 1.88776 0.34236 4.97389 5.31707 0.00000 19.97853 4.81968 4.99463 10.95889 38.40884 49.56524 1.00000 0.00000 0.00000 0.00082 150.00000 0.19751
0.32117 1.89039 0.33909 4.96418 5.30395 0.00000 19.90312 4.80501 4.97578 10.81304 38.21713 49.19612 1.00000 0.00000 0.00000 0.00069 150.00000 0.16595
0.32448 1.89268 0.33585 4.95444 5.29084 0.00000 19.82772 4.79033 4.95693 10.66912 38.02567 48.82680 1.00000 0.00000 0.00000 0.00055 150.00000 0.13200
0.32779 1.89482 0.33264 4.94466 5.27772 0.00000 19.75231 4.77565 4.93808 10.52713 37.83435 48.46087 1.00000 0.00000 0.00000 0.00041 150.00000 0.09940
0.33110 1.89681 0.32947 4.93483 5.26460 0.00000 19.67691 4.76098 4.91923 10.38701 37.64310 48.10097 1.00000 0.00000 0.00000 0.00029 150.00000 0.07085
0.33441 1.89861 0.32634 4.92471 5.25125 0.00000 19.59947 4.74913 4.89987 10.24770 37.47239 47.76790 1.00000 0.00000 0.00000 0.00020 150.00000 0.04781
0.33773 1.90017 0.32324 4.91450 5.23786 0.00000 19.52170 4.73773 4.88042 10.11008 37.30491 47.44553 1.00000 0.00000 0.00000 0.00013 150.00000 0.03054
0.34104 1.90143 0.32017 4.90422 5.22447 0.00000 19.44393 4.72633 4.86098 9.97429 37.13739 47.13015 1.00000 0.00000 0.00000 0.00008 150.00000 0.01847
0.34435 1.90251 0.31714 4.89390 5.21108 0.00000 19.36616 4.71494 4.84154 9.84031 36.96985 46.82074 1.00000 0.00000 0.00000 0.00004 150.00000 0.01057
0.34766 1.90350 0.31414 4.88348 5.19764 0.00000 19.28789 4.70171 4.82197 9.70788 36.78765 46.50126 1.00000 0.00000 0.00000 0.00002 150.00000 0.00573
0.35097 1.90434 0.31117 4.87286 5.18405 0.00000 19.20803 4.68258 4.80201 9.57642 36.55832 46.13768 1.00000 0.00000 0.00000 0.00001 150.00000 0.00294
0.35428 1.90501 0.30824 4.86221 5.17046 0.00000 19.12817 4.66345 4.78204 9.44672 36.32935 45.77750 1.00000 0.00000 0.00000 0.00001 150.00000 0.00143
0.35759 1.90547 0.30534 4.85152 5.15686 0.00000 19.04832 4.64432 4.76208 9.31875 36.10078 45.42019 1.00000 0.00000 0.00000 0.00000 150.00000 0.00066
0.36090 1.90584 0.30247 4.84079 5.14327 0.00000 18.96846 4.62519 4.74211 9.19250 35.87260 45.06539 1.00000 0.00000 0.00000 0.00000 150.00000 0.00029
0.36421 1.90616 0.29963 4.82995 5.12959 0.00000 18.88749 4.60565 4.72187 9.06742 35.64105 44.70859 1.00000 0.00000 0.00000 0.00000 150.00000 0.00012
0.36753 1.90641 0.29683 4.81902 5.11585 0.00000 18.80583 4.58585 4.70146 8.94367 35.40755 44.35127 1.00000 0.00000 0.00000 0.00000 150.00000 0.00005
0.37084 1.90656 0.29405 4.80807 5.10212 0.00000 18.72417 4.56605 4.68104 8.82159 35.17451 43.99612 1.00000 0.00000 0.00000 0.00000 150.00000 0.00002
0.37415 1.90655 0.29131 4.79708 5.08839 0.00000 18.64251 4.54625 4.66063 8.70115 34.94194 43.64310 1.00000 0.00000 0.00000 0.00000 150.00000 0.00001
0.37746 1.90619 0.28860 4.78606 5.07465 0.00000 18.56085 4.52645 4.64021 8.58233 34.70985 43.29218 1.00000 0.00000 0.00000 0.00000 150.00000 0.00000
0.38077 1.90555 0.28591 4.77494 5.06086 0.00000 18.47772 4.50604 4.61943 8.46443 34.47307 42.93750 1.00000 0.00000 0.00000 0.00000 150.00000 0.00000
0.38408 1.90473 0.28326 4.76380 5.04706 0.00000 18.39458 4.48562 4.59865 8.34812 34.23673 42.58485 1.00000 0.00000 0.00000 0.00000 150.00000 0.00000
0.38739 1.90385 0.28063 4.75262 5.03326 0.00000 18.31144 4.46519 4.57786 8.23336 34.00092 42.23428 1.00000 0.00000 0.00000 0.00000 150.00000 0.00000
0.39070 1.90286 0.27804 4.74142 5.01946 0.00000 18.22830 4.44477 4.55707 8.12015 33.76562 41.88578 1.00000 0.00000 0.00000 0.00000 150.00000 0.00000
0.39401 1.90158 0.27547 4.73019 5.00566 0.00000 18.14474 4.42455 4.53618 8.00829 33.53242 41.54070 1.00000 0.00000 0.00000 0.00000 150.00000 0.00000
0.39732 1.90010 0.27293 4.71894 4.99187 0.00000 18.06045 4.40469 4.51511 7.89760 33.30246 41.20007 1.00000 0.00000 0.00000 0.00000 150.00000 0.00000
0.40064 1.89855 0.27042 4.70766 4.97808 0.00000 17.97616 4.38482 4.49404 7.78842 33.07303 40.86145 1.00000 0.00000 0.00000 0.00000 150.00000 0.00000
0.40395 1.89698 0.26793 4.69636 4.96429 0.00000 17.89187 4.36496 4.47297 7.68070 32.84412 40.52482 1.00000 0.00000 0.00000 0.00000 150.00000 0.00000
0.40726 1.89533 0.26548 4.68502 4.95050 0.00000 17.80758 4.34509 4.45189 7.57443 32.61574 40.19017 1.00000 0.00000 0.00000 0.00000 150.00000 0.00000
0.41057 1.89358 0.26305 4.67372 4.93677 0.00000 17.72269 4.32462 4.43067 7.46935 32.38376 39.85310 1.00000 0.00000 0.00000 0.00000 150.00000 0.00000
0.41388 1.89174 0.26065 4.66242 4.92306 0.00000 17.63759 4.30393 4.40940 7.36559 32.15087 39.51646 1.00000 0.00000 0.00000 0.00000 150.00000 0.00000
0.41719 1.88981 0.25827 4.65108 4.90935 0.00000 17.55249 4.28324 4.38812 7.26323 31.91855 39.18178 1.00000 0.00000 0.00000 0.00000 150.00000 0.00000
0.42050 1.88776 0.25592 4.63973 4.89565 0.00000 17.46739 4.26255 4.36685 7.16226 31.68680 38.84906 1.00000 0.00000 0.00000 0.00000 150.00000 0.00000
0.42381 1.88558 0.25360 4.62836 4.88196 0.00000 17.38224 4.24189 4.34556 7.06262 31.45598 38.51860 1.00000 0.00000 0.00000 0.00000 150.00000 0.00000
0.42712 1.88334 0.25130 4.61710 4.86840 0.00000 17.29667 4.22147 4.32417 6.96416 31.22841 38.19257 1.00000 0.00000 0.00000 0.00000 150.00000 0.00000
0.43043 1.88106 0.24903 4.60582 4.85484 0.00000 17.21110 4.20105 4.30278 6.86703 31.00141 37.86844 1.00000 0.00000 0.00000 0.00000 150.00000 0.00000
0.43375 1.87871 0.24678 4.59451 4.84128 0.00000 17.12553 4.18063 4.28138 6.77121 30.77498 37.54620 1.00000 0.00000 0.00000 0.00000 150.00000 0.00000
0.43706 1.87630 0.24455 4.58317 4.82773 0.00000 17.03997 4.16022 4.25999 6.67669 30.54913 37.22582 1.00000 0.00000 0.00000 0.00000 150.00000 0.00000
0.44037 1.87387 0.24236 4.57192 4.81428 0.00000 16.95434 4.13956 4.23858 6.58341 30.32285 36.90626 1.00000 0.00000 0.00000 0.00000 150.00000 0.00000
0.44368 1.87149 0.24018 4.56076 4.80094 0.00000 16.86865 4.11866 4.21716 6.49137 30.09611 36.58748 1.00000 0.00000 0.00000 0.00000 150.00000 0.00000
0.44699 1.86910 0.23803 4.54958 4.78761 0.00000 16.78296 4.09776 4.19574 6.40057 29.86995 36.27053 1.00000 0.00000 0.00000 0.00000 150.00000 0.00000
0.45030 1.86672 0.23590 4.53837 4.77427 0.00000 16.69727 4.07686 4.17432 6.31100 29.64440 35.95540 1.00000 0.00000 0.00000 0.00000 150.00000 0.00000
0.45361 1.86441 0.23380 4.52713 4.76094 0.00000 16.61158 4.05597 4.15289 6.22263 29.41944 35.64207 1.00000 0.00000 0.00000 0.00000 150.00000 0.00000
0.45692 1.86221 0.23172 4.51613 4.74785 0.00000 16.52607 4.03609 4.13152 6.13553 29.20416 35.33969 1.00000 0.00000 0.00000 0.00000 150.00000 0.00000
0.46023 1.86005 0.22966 4.50515 4.73481 0.00000 16.44060 4.01638 4.11015 6.04961 28.99086 35.04047 1.00000 0.00000 0.00000 0.00000 150.00000 0.00000
0.46355 1.85798 0.22763 4.49414 4.72177 0.00000 16.35513 3.99667 4.08878 5.96485 28.77810 34.74295 1.00000 0.00000 0.00000 0.00000 150.00000 0.00000
0.46686 1.85608 0.22562 4.48312 4.70873 0.00000 16.26966 3.97696 4.06742 5.88123 28.56590 34.44713 1.00000 0.00000 0.00000 0.00000 150.00000 0.00000
0.47017 1.85437 0.22363 4.47215 4.69578 0.00000 16.18432 3.95713 4.04608 5.79878 28.35396 34.15275 1.00000 0.00000 0.00000 0.00000 150.00000 0.00000
0.47348 1.85278 0.22166 4.46145 4.68311 0.00000 16.09942 3.93692 4.02485 5.71760 28.14163 33.85923 1.00000 0.00000 0.00000 0.00000 150.00000 0.00000
0.47679 1.85134 0.21971 4.45073 4.67044 0.00000 16.01451 3.91671 4.00363 5.63751 27.92986 33.56736 1.00000 0.00000 0.00000 0.00000 150.00000 0.00000
0.48010 1.85007 0.21779 4.43998 4.65777 0.00000 15.92960 3.89650 3.98240 5.55849 27.71865 33.27714 1.00000 0.00000 0.00000 0.00000 150.00000 0.00000
0.48341 1.84883 0.21589 4.42921 4.64510 0.00000 15.84469 3.87628 3.96117 5.48054 27.50800 32.98853 1.00000 0.00000 0.00000 0.00000 150.00000 0.00000
0.48672 1.84774 0.21400 4.41869 4.63269 0.00000 15.76031 3.85572 3.94008 5.40381 27.29704 32.70086 1.00000 0.00000 0.00000 0.00000 150.00000 0.00000
0.49003 1.84700 0.21214 4.40832 4.62046 0.00000 15.67626 3.83493 3.91907 5.32823 27.08610 32.41434 1.00000 0.00000 0.00000 0.00000 150.00000 0.00000
0.49334 1.84665 0.21030 4.39792 4.60822 0.00000 15.59222 3.81414 3.89805 5.25367 26.87573 32.12940 1.00000 0.00000 0.00000 0.00000 150.00000 0.00000
0.49666 1.84637 0.20848 4.38750 4.59598 0.00000 15.50817 3.79335 3.87704 5.18010 26.66593 31.84603 1.00000 0.00000 0.00000 0.00000 150.00000 0.00000
0.49997 1.84621 0.20668 4.37707 4.58374 0.00000 15.42413 3.77256 3.85603 5.10752 26.45670 31.56422 1.00000 0.00000 0.00000 0.00000 150.00000 0.00000
0.50328 1.84622 0.20490 4.36708 4.57197 0.00000 15.34116 3.75313 3.83529 5.03627 26.26037 31.29665 1.00000 0.00000 0.00000 0.00000 150.00000 0.00000
0.50659 1.84663 0.20313 4.35708 4.56021 0.00000 15.25821 3.73371 3.81455 4.96598 26.06468 31.03066 1.00000 0.00000 0.00000 0.00000 150.00000 0.00000
0.50990 1.84735 0.20139 4.34705 4.54845 0.00000 15.17526 3.71429 3.79381 4.89663 25.86949 30.76612 1.00000 0.00000 0.00000 0.00000 150.00000 0.00000
0.51321 1.84818 0.19967 4.33701 4.53668 0.00000 15.09231 3.69488 3.77308 4.82820 25.67482 30.50302 1.00000 0.00000 0.00000 0.00000 150.00000 0.00000
0.51652 1.84935 0.19797 4.32714 4.52511 0.00000 15.00983 3.67531 3.75246 4.76084 25.48071 30.24155 1.00000 0.00000 0.00000 0.00000 150.00000 0.00000
0.51983 1.85094 0.19628 4.31758 4.51386 0.00000 14.92819 3.65548 3.73205 4.69464 25.28722 29.98186 1.00000 0.00000 0.00000 0.00000 150.00000 0.00000
0.52314 1.85276 0.19461 4.30799 4.50261 0.00000 14.84655 3.63565 3.71164 4.62933 25.09422 29.72355 1.00000 0.00000 0.00000 0.00000 150.00000 0.00000
0.52645 1.85482 0.19297 4.29839 4.49136 0.00000 14.76491 3.61582 3.69123 4.56488 24.90172 29.46661 1.00000 0.00000 0.00000 0.00000 150.00000 0.00000
0.52977 1.85727 0.19134 4.28877 4.48011 0.00000 14.68327 3.59599 3.67082 4.50130 24.70974 29.21103 1.00000 0.00000 0.00000 0.00000 150.00000 0.00000
0.53308 1.85997 0.18972 4.27954 4.46927 0.00000 14.60274 3.57647 3.65069 4.43889 24.52273 28.96162 1.00000 0.00000 0.00000 0.00000 150.00000 0.00000
0.53639 1.86283 0.18813 4.27044 4.45857 0.00000 14.52259 3.55706 3.63065 4.37743 24.33777 28.71520 1.00000 0.00000 0.00000 0.00000 150.00000 0.00000
0.53970 1.86596 0.18655 4.26133 4.44788 0.00000 14.44245 3.53765 3.61061 4.31679 24.15327 28.47006 1.00000 0.00000 0.00000 0.00000 150.00000 0.00000
0.54301 1.86937 0.18499 4.25219 4.43718 0.00000 14.36230 3.51824 3.59058 4.25696 23.96924 28.22620 1.00000 0.00000 0.00000 0.00000 150.00000 0.00000
0.54632 1.87306 0.18345 4.24311 4.42656 0.00000 14.28234 3.49891 3.57059 4.19797 23.78667 27.98464 1.00000 0.00000 0.00000 0.00000 150.00000 0.00000
0.54963 1.87712 0.18193 4.23454 4.41647 0.00000 14.20385 3.48026 3.55096 4.14019 23.61209 27.75228 1.00000 0.00000 0.00000 0.00000 150.00000 0.00000
0.55294 1.88150 0.18042 4.22595 4.40637 0.00000 14.12535 3.46161 3.53134 4.08318 23.43793 27.52111 1.00000 0.00000 0.00000 0.00000 150.00000 0.00000
0.55625 1.88614 0.17893 4.21735 4.39628 0.00000 14.04686 3.44296 3.51171 4.02691 23.26419 27.29111 1.00000 0.00000 0.00000 0.00000 150.00000 0.00000
0.55957 1.89110 0.17745 4.20873 4.38618 0.00000 13.96836 3.42431 3.49209 3.97140 23.09087 27.06227 1.00000 0.00000 0.00000 0.00000 150.00000 0.00000
0.56288 1.89638 0.17599 4.20041 4.37640 0.00000 13.89074 3.40500 3.47268 3.91686 22.91530 26.83216 1.00000 0.00000 0.00000 0.00000 150.00000 0.00000
0.56619 1.90195 0.17455 4.19240 4.36695 0.00000 13.81402 3.38502 3.45350 3.86329 22.73737 26.60066 1.00000 0.00000 0.00000 0.00000 150.00000 0.00000
0.56950 1.90787 0.17312 4.18437 4.35749 0.00000 13.73730 3.36504 3.43432 3.81043 22.55987 26.37029 1.00000 0.00000 0.00000 0.00000 150.00000 0.00000
0.57281 1.91414 0.17171 4.17632 4.34803 0.00000 13.66058 3.34506 3.41514 3.75826 22.38279 26.14105 1.00000 0.00000 0.00000 0.00000 150.00000 0.00000
0.57612 1.92068 0.17032 4.16826 4.33858 0.00000 13.58386 3.32508 3.39596 3.70678 22.20615 25.91293 1.00000 0.00000 0.00000 0.00000 150.00000 0.00000
0.57943 1.92756 0.16894 4.16076 4.32969 0.00000 13.50871 3.30796 3.37718 3.65639 22.05206 25.70845 1.00000 0.00000 0.00000 0.00000 150.00000 0.00000
0.58274 1.93477 0.16757 4.15332 4.32089 0.00000 13.43381 3.29128 3.35845 3.60674 21.90169 25.50843 1.00000 0.00000 0.00000 0.00000 150.00000 0.00000
0.58605 1.94227 0.16622 4.14588 4.31210 0.00000 13.35891 3.27461 3.33973 3.55773 21.75165 25.30938 1.00000 0.00000 0.00000 0.00000 150.00000 0.00000
0.58936 1.95010 0.16489 4.13841 4.30330 0.00000 13.28401 3.25793 3.32100 3.50937 21.60192 25.11129 1.00000 0.00000 0.00000 0.00000 150.00000 0.00000
0.59268 1.95827 0.16357 4.13110 4.29467 0.00000 13.20955 3.24109 3.30239 3.46175 21.45232 24.91407 1.00000 0.00000 0.00000 0.00000 150.00000 0.00000
0.59599 1.96674 0.16226 4.12429 4.28655 0.00000 13.13650 3.22376 3.28412 3.41512 21.30240 24.71752 1.00000 0.00000 0.00000 0.00000 150.00000 0.00000
0.59930 1.97555 0.16097 4.11746 4.27843 0.00000 13.06344 3.20643 3.26586 3.36910 21.15278 24.52188 1.00000 0.00000 0.00000 0.00000 150.00000 0.00000
0.60261 1.98470 0.15969 4.11062 4.27031 0.00000 12.99039 3.18909 3.24760 3.32368 21.00347 24.32714 1.00000 0.00000 0.00000 0.00000 150.00000 0.00000
0.60592 1.99417 0.15843 4.10376 4.26219 0.00000 12.91733 3.17176 3.22933 3.27884 20.85447 24.13331 1.00000 0.00000 0.00000 0.00000 150.00000 0.00000
0.60923 2.00397 0.15718 4.09733 4.25451 0.00000 12.84544 3.15429 3.21136 3.23488 20.70709 23.94197 1.00000 0.00000 0.00000 0.00000 150.00000 0.00000
0.61254 2.01413 0.15594 4.09116 4.24710 0.00000 12.77428 3.13673 3.19357 3.19167 20.56082 23.75249 1.00000 0.00000 0.00000 0.00000 150.00000 0.00000
0.61585 2.02462 0.15472 4.08497 4.23969 0.00000 12.70311 3.11918 3.17578 3.14902 20.41482 23.56385 1.00000 0.00000 0.00000 0.00000 150.00000 0.00000
0.61916 2.03549 0.15351 4.07877 4.23228 0.00000 12.63195 3.10162 3.15799 3.10693 20.26911 23.37603 1.00000 0.00000 0.00000 0.00000 150.00000 0.00000
0.62247 2.04672 0.15232 4.07255 4.22487 0.00000 12.56078 3.08407 3.14020 3.06537 20.12368 23.18905 1.00000 0.00000 0.00000 0.00000 150.00000 0.00000
0.62579 2.05828 0.15114 4.06706 4.21820 0.00000 12.49154 3.06670 3.12288 3.02482 19.98339 23.00821 1.00000 0.00000 0.00000 0.00000 150.00000 0.00000
0.62910 2.07019 0.14997 4.06157 4.21153 0.00000 12.42231 3.04934 3.10558 2.98479 19.84338 22.82817 1.00000 0.00000 0.00000 0.00000 150.00000 0.00000
0.63241 2.08246 0.14881 4.05606 4.20487 0.00000 12.35309 3.03197 3.08827 2.94528 19.70361 22.64889 1.00000 0.00000 0.00000 0.00000 150.00000 0.00000
0.63572 2.09510 0.14767 4.05054 4.19821 0.00000 12.28386 3.01460 3.07096 2.90627 19.56408 22.47036 1.00000 0.00000 0.00000 0.00000 150.00000 0.00000
0.63903 2.10813 0.14654 4.04529 4.19183 0.00000 12.21537 2.99705 3.05384 2.86794 19.42497 22.29291 1.00000 0.00000 0.00000 0.00000 150.00000 0.00000
0.64234 2.12155 0.14542 4.04054 4.18596 0.00000 12.14815 2.97917 3.03704 2.83039 19.28637 22.11676 1.00000 0.00000 0.00000 0.00000 150.00000 0.00000
0.64565 2.13534 0.14431 4.03577 4.18008 0.00000 12.08093 2.96128 3.02023 2.79333 19.14798 21.94130 1.00000 0.00000 0.00000 0.00000 150.00000 0.00000
0.64896 2.14955 0.14322 4.03099 4.17421 0.00000 12.01370 2.94340 3.00343 2.75673 19.00980 21.76653 1.00000 0.00000 0.00000 0.00000 150.00000 0.00000
0.65227 2.16415 0.14214 4.02619 4.16833 0.00000 11.94648 2.92552 2.98662 2.72061 18.87184 21.59245 1.00000 0.00000 0.00000 0.00000 150.00000 0.00000
0.65559 2.17909 0.14107 4.02202 4.16309 0.00000 11.88085 2.90959 2.97021 2.68530 18.74961 21.43490 1.00000 0.00000 0.00000 0.00000 150.00000 0.00000
0.65890 2.19438 0.14001 4.01805 4.15806 0.00000 11.81576 2.89433 2.95394 2.65056 18.63288 21.28344 1.00000 0.00000 0.00000 0.00000 150.00000 0.00000
0.66221 2.21005 0.13896 4.01408 4.15304 0.00000 11.75067 2.87907 2.93767 2.61626 18.51629 21.13255 1.00000 0.00000 0.00000 0.00000 150.00000 0.00000
0.66552 2.22611 0.13793 4.01009 4.14801 0.00000 11.68559 2.86381 2.92140 2.58240 18.39984 20.98224 1.00000 0.00000 0.00000 0.00000 150.00000 0.00000
0.66883 2.24259 0.13691 4.00619 4.14310 0.00000 11.62077 2.84840 2.90519 2.54902 18.28307 20.83208 1.00000 0.00000 0.00000 0.00000 150.00000 0.00000
0.67214 2.25949 0.13589 4.00310 4.13899 0.00000 11.55796 2.83186 2.88949 2.51650 18.16287 20.67938 1.00000 0.00000 0.00000 0.00000 150.00000 0.00000
0.67545 2.27679 0.13489 3.99999 4.13488 0.00000 11.49515 2.81532 2.87379 2.48439 18.04280 20.52719 1.00000 0.00000 0.00000 0.00000 150.00000 0.00000
0.67876 2.29449 0.13390 3.99687 4.13077 0.00000 11.43234 2.79879 2.85809 2.45269 17.92284 20.37552 1.00000 0.00000 0.00000 0.00000 150.00000 0.00000
0.68207 2.31263 0.13292 3.99374 4.12666 0.00000 11.36953 2.78225 2.84238 2.42138 17.80299 20.22437 1.00000 0.00000 0.00000 0.00000 150.00000 0.00000
0.68538 2.33121 0.13196 3.99109 4.12305 0.00000 11.30792 2.76669 2.82698 2.39072 17.69171 20.08243 1.00000 0.00000 0.00000 0.00000 150.00000 0.00000
0.68870 2.35026 0.13100 3.98894 4.11994 0.00000 11.24755 2.75214 2.81189 2.36070 17.58917 19.94987 1.00000 0.00000 0.00000 0.00000 150.00000 0.00000
0.69201 2.36979 0.13005 3.98678 4.11683 0.00000 11.18718 2.73759 2.79679 2.33106 17.48668 19.81774 1.00000 0.00000 0.00000 0.00000 150.00000 0.00000
0.69532 2.38977 0.12912 3.98461 4.11373 0.00000 11.12680 2.72304 2.78170 2.30178 17.38425 19.68603 1.00000 0.00000 0.00000 0.00000 150.00000 0.00000
0.69863 2.41024 0.12819 3.98243 4.11062 0.00000 11.06643 2.70848 2.76661 2.27287 17.28187 19.55474 1.00000 0.00000 0.00000 0.00000 150.00000 0.00000
0.70194 2.43121 0.12727 3.98120 4.10847 0.00000 11.00832 2.69420 2.75208 2.24478 17.18541 19.43020 1.00000 0.00000 0.00000 0.00000 150.00000 0.00000
0.70525 2.45262 0.12637 3.98010 4.10646 0.00000 10.95056 2.67996 2.73764 2.21711 17.08985 19.30696 1.00000 0.00000 0.00000 0.00000 150.00000 0.00000
0.70856 2.47446 0.12547 3.97899 4.10446 0.00000 10.89280 2.66572 2.72320 2.18978 16.99430 19.18408 1.00000 0.00000 0.00000 0.00000 150.00000 0.00000
0.71187 2.49676 0.12459 3.97787 4.10246 0.00000 10.83503 2.65147 2.70876 2.16279 16.89875 19.06154 1.00000 0.00000 0.00000 0.00000 150.00000 0.00000
0.71518 2.51950 0.12371 3.97703 4.10074 0.00000 10.77797 2.63728 2.69449 2.13626 16.80473 18.94099 1.00000 0.00000 0.00000 0.00000 150.00000 0.00000
0.71849 2.54265 0.12284 3.97705 4.09990 0.00000 10.72304 2.62324 2.68076 2.11049 16.71538 18.82587 1.00000 0.00000 0.00000 0.00000 150.00000 0.00000
0.72181 2.56622 0.12199 3.97707 4.09906 0.00000 10.66811 2.60920 2.66703 2.08503 16.62599 18.71102 1.00000 0.00000 0.00000 0.00000 150.00000 0.00000
0.72512 2.59029 0.12114 3.97708 4.09822 0.00000 10.61319 2.59516 2.65330 2.05988 16.53655 18.59644 1.00000 0.00000 0.00000 0.00000 150.00000 0.00000
0.72843 2.61494 0.12030 3.97708 4.09737 0.00000 10.55826 2.58112 2.63957 2.03504 16.44708 18.48213 1.00000 0.00000 0.00000 0.00000 150.00000 0.00000
0.73174 2.64021 0.11947 3.97768 4.09715 0.00000 10.50539 2.56731 2.62635 2.01090 16.36155 18.37245 1.00000 0.00000 0.00000 0.00000 150.00000 0.00000
0.73505 2.66605 0.11865 3.97865 4.09731 0.00000 10.45378 2.55363 2.61344 1.98729 16.27840 18.26569 1.00000 0.00000 0.00000 0.00000 150.00000 0.00000
0.73836 2.69240 0.11784 3.97962 4.09746 0.00000 10.40217 2.53996 2.60054 1.96396 16.19516 18.15913 1.00000 0.00000 0.00000 0.00000 150.00000 0.00000
0.74167 2.71928 0.11704 3.98058 4.09761 0.00000 10.35056 2.52629 2.58764 1.94092 16.11185 18.05277 1.00000 0.00000 0.00000 0.00000 150.00000 0.00000
0.74498 2.74671 0.11625 3.98152 4.09777 0.00000 10.29895 2.51261 2.57474 1.91816 16.02846 17.94662 1.00000 0.00000 0.00000 0.00000 150.00000 0.00000
0.74829 2.77466 0.11546 3.98321 4.09867 0.00000 10.25118 2.50068 2.56279 1.89638 15.95912 17.85550 1.00000 0.00000 0.00000 0.00000 150.00000 0.00000
0.75161 2.80313 0.11469 3.98489 4.09958 0.00000 10.20343 2.48876 2.55086 1.87487 15.88975 17.76462 1.00000 0.00000 0.00000 0.00000 150.00000 0.00000
0.75492 2.83214 0.11392 3.98657 4.10048 0.00000 10.15568 2.47684 2.53892 1.85361 15.82029 17.67390 1.00000 0.00000 0.00000 0.00000 150.00000 0.00000
0.75823 2.86170 0.11316 3.98823 4.10139 0.00000 10.10793 2.46492 2.52698 1.83261 15.75072 17.58333 1.00000 0.00000 0.00000 0.00000 150.00000 0.00000
0.76154 2.89178 0.11241 3.99006 4.10247 0.00000 10.06164 2.45281 2.51541 1.81212 15.68050 17.49262 1.00000 0.00000 0.00000 0.00000 150.00000 0.00000
0.76485 2.92239 0.11167 3.99217 4.10384 0.00000 10.01783 2.44037 2.50446 1.79232 15.60922 17.40154 1.00000 0.00000 0.00000 0.00000 150.00000 0.00000
0.76816 2.95356 0.11093 3.99428 4.10521 0.00000 9.97402 2.42792 2.49350 1.77276 15.53782 17.31057 1.00000 0.00000 0.00000 0.00000 150.00000 0.00000
0.77147 2.98530 0.11021 3.99638 4.10659 0.00000 9.93021 2.41548 2.48255 1.75342 15.46630 17.21972 1.00000 0.00000 0.00000 0.00000 150.00000 0.00000
0.77478 3.01762 0.10949 3.99847 4.10796 0.00000 9.88640 2.40304 2.47160 1.73432 15.39467 17.12899 1.00000 0.00000 0.00000 0.00000 150.00000 0.00000
0.77809 3.05051 0.10878 4.00063 4.10941 0.00000 9.84507 2.38852 2.46127 1.71587 15.30997 17.02584 1.00000 0.00000 0.00000 0.00000 150.00000 0.00000
0.78140 3.08406 0.10808 4.00282 4.11090 0.00000 9.80459 2.37330 2.45115 1.69779 15.22072 16.91851 1.00000 0.00000 0.00000 0.00000 150.00000 0.00000
0.78472 3.11836 0.10738 4.00499 4.11238 0.00000 9.76412 2.35808 2.44103 1.67992 15.13133 16.81125 1.00000 0.00000 0.00000 0.00000 150.00000 0.00000
0.78803 3.15351 0.10670 4.00716 4.11386 0.00000 9.72364 2.34286 2.43091 1.66226 15.04181 16.70406 1.00000 0.00000 0.00000 0.00000 150.00000 0.00000
0.79134 3.18941 0.10602 4.00929 4.11531 0.00000 9.68347 2.32685 2.42087 1.64486 14.94698 16.59184 1.00000 0.00000 0.00000 0.00000 150.00000 0.00000
0.79465 3.22591 0.10535 4.01118 4.11652 0.00000 9.64555 2.30514 2.41139 1.62804 14.81446 16.44250 1.00000 0.00000 0.00000 0.00000 150.00000 0.00000
0.79796 3.26288 0.10468 4.01305 4.11773 0.00000 9.60763 2.28343 2.40191 1.61141 14.68177 16.29319 1.00000 0.00000 0.00000 0.00000 150.00000 0.00000
0.80127 3.30036 0.10403 4.01492 4.11894 0.00000 9.56971 2.26172 2.39243 1.59498 14.54893 16.14392 1.00000 0.00000 0.00000 0.00000 150.00000 0.00000
0.80458 3.33847 0.10338 4.01677 4.12015 0.00000 9.53179 2.24000 2.38295 1.57874 14.41594 15.99468 1.00000 0.00000 0.00000 0.00000 150.00000 0.00000
0.80789 3.37731 0.10273 4.01820 4.12093 0.00000 9.49432 2.22326 2.37358 1.56276 14.31327 15.87604 1.00000 0.00000 0.00000 0.00000 150.00000 0.00000
0.81120 3.41694 0.10210 4.01918 4.12128 0.00000 9.45730 2.21157 2.36432 1.54704 14.24148 15.78852 1.00000 0.00000 0.00000 0.00000 150.00000 0.00000
0.81452 3.45736 0.10147 4.02015 4.12162 0.00000 9.42028 2.19988 2.35507 1.53150 14.16962 15.70112 1.00000 0.00000 0.00000 0.00000 150.00000 0.00000
0.81783 3.49850 0.10085 4.02112 4.12197 0.00000 9.38326 2.18819 2.34581 1.51614 14.09770 15.61384 1.00000 0.00000 0.00000 0.00000 150.00000 0.00000
0.82114 3.54028 0.10023 4.02208 4.12231 0.00000 9.34624 2.17650 2.33656 1.50096 14.02572 15.52668 1.00000 0.00000 0.00000 0.00000 150.00000 0.00000
0.82445 3.58269 0.09963 4.02169 4.12131 0.00000 9.30822 2.14963 2.32705 1.48579 13.85123 15.33701 1.00000 0.00000 0.00000 0.00000 150.00000 0.00000
0.82776 3.62578 0.09902 4.02109 4.12011 0.00000 9.27004 2.12052 2.31751 1.47076 13.66166 15.13242 1.00000 0.00000 0.00000 0.00000 150.00000 0.00000
0.83107 3.66960 0.09843 4.02048 4.11891 0.00000 9.23187 2.09142 2.30797 1.45591 13.47212 14.92804 1.00000 0.00000 0.00000 0.00000 150.00000 0.00000
0.83438 3.71420 0.09784 4.01987 4.11771 0.00000 9.19370 2.06232 2.29842 1.44123 13.28262 14.72385 1.00000 0.00000 0.00000 0.00000 150.00000 0.00000
0.83769 3.75969 0.09726 4.01866 4.11592 0.00000 9.15464 2.03688 2.28866 1.42658 13.11488 14.54147 1.00000 0.00000 0.00000 0.00000 150.00000 0.00000
0.84100 3.80605 0.09669 4.01567 4.11235 0.00000 9.11290 2.02265 2.27822 1.41168 13.01353 14.42522 1.00000 0.00000 0.00000 0.00000 150.00000 0.00000
0.84431 3.85311 0.09612 4.01266 4.10878 0.00000 9.07115 2.00842 2.26779 1.39695 12.91230 14.30925 1.00000 0.00000 0.00000 0.00000 150.00000 0.00000
0.84763 3.90070 0.09555 4.00965 4.10521 0.00000 9.02941 1.99419 2.25735 1.38239 12.81118 14.19357 1.00000 0.00000 0.00000 0.00000 150.00000 0.00000
0.85094 3.94873 0.09500 4.00664 4.10164 0.00000 8.98766 1.97995 2.24691 1.36798 12.71018 14.07817 1.00000 0.00000 0.00000 0.00000 150.00000 0.00000
0.85425 3.99729 0.09445 4.00145 4.09590 0.00000 8.94173 1.96497 2.23543 1.35311 12.59764 13.95075 1.00000 0.00000 0.00000 0.00000 150.00000 0.00000
0.85756 4.04647 0.09390 3.99494 4.08885 0.00000 8.89325 1.94952 2.22331 1.33803 12.47828 13.81631 1.00000 0.00000 0.00000 0.00000 150.00000 0.00000
0.86087 4.09632 0.09337 3.98843 4.08180 0.00000 8.84478 1.93407 2.21120 1.32311 12.35923 13.68234 1.00000 0.00000 0.00000 0.00000 150.00000 0.00000
0.86418 4.14690 0.09283 3.98191 4.07475 0.00000 8.79631 1.91862 2.19908 1.30836 12.24048 13.54884 1.00000 0.00000 0.00000 0.00000 150.00000 0.00000
0.86749 4.19824 0.09231 3.97539 4.06770 0.00000 8.74784 1.90318 2.18696 1.29377 12.12204 13.41581 1.00000 0.00000 0.00000 0.00000 150.00000 0.00000
0.87080 4.25027 0.09179 3.96414 4.05593 0.00000 8.68909 1.91048 2.17227 1.27784 12.13411 13.41195 1.00000 0.00000 0.00000 0.00000 150.00000 0.00000
0.87411 4.30292 0.09127 3.95288 4.04415 0.00000 8.63031 1.91784 2.15758 1.26208 12.14624 13.40832 1.00000 0.00000 0.00000 0.00000 150.00000 0.00000
0.87742 4.35611 0.09076 3.94161 4.03237 0.00000 8.57154 1.92519 2.14288 1.24649 12.15808 13.40457 1.00000 0.00000 0.00000 0.00000 150.00000 0.00000
0.88074 4.40994 0.09026 3.93033 4.02059 0.00000 8.51276 1.93255 2.12819 1.23108 12.16964 13.40072 1.00000 0.00000 0.00000 0.00000 150.00000 0.00000
0.88405 4.46440 0.08976 3.91637 4.00613 0.00000 8.44744 1.93041 2.11186 1.21489 12.11295 13.32785 1.00000 0.00000 0.00000 0.00000 150.00000 0.00000
0.88736 4.51942 0.08927 3.89788 3.98715 0.00000 8.37109 1.91228 2.09277 1.19731 11.94257 13.13987 1.00000 0.00000 0.00000 0.00000 150.00000 0.00000
0.89067 4.57490 0.08878 3.87939 3.96818 0.00000 8.29473 1.89415 2.07368 1.17992 11.77323 12.95315 1.00000 0.00000 0.00000 0.00000 150.00000 0.00000
0.89398 4.63080 0.08830 3.86090 3.94920 0.00000 8.21838 1.87603 2.05460 1.16271 11.60496 12.76767 1.00000 0.00000 0.00000 0.00000 150.00000 0.00000
0.89729 4.68722 0.08783 3.84239 3.93022 0.00000 8.14203 1.85790 2.03551 1.14570 11.43775 12.58344 1.00000 0.00000 0.00000 0.00000 150.00000 0.00000
0.90060 4.74412 0.08735 3.81608 3.90344 0.00000 8.04536 1.85762 2.01134 1.12602 11.35773 12.48375 1.00000 0.00000 0.00000 0.00000 150.00000 0.00000
0.90391 4.80144 0.08689 3.78714 3.87403 0.00000 7.94184 1.86335 1.98546 1.10561 11.30637 12.41198 1.00000 0.00000 0.00000 0.00000 150.00000 0.00000
0.90722 4.85914 0.08643 3.75819 3.84462 0.00000 7.83833 1.86909 1.95958 1.08541 11.25447 12.33988 1.00000 0.00000 0.00000 0.00000 150.00000 0.00000
0.91054 4.91722 0.08597 3.72924 3.81521 0.00000 7.73481 1.87482 1.93370 1.06543 11.20201 12.26745 1.00000 0.00000 0.00000 0.00000 150.00000 0.00000
0.91385 4.97578 0.08552 3.69854 3.78406 0.00000 7.62642 1.87645 1.90660 1.04499 11.11946 12.16445 1.00000 0.00000 0.00000 0.00000 150.00000 0.00000
0.91716 5.03472 0.08508 3.65549 3.74057 0.00000 7.48336 1.84892 1.87084 1.02005 10.82883 11.84888 1.00000 0.00000 0.00000 0.00000 150.00000 0.00000
0.92047 5.09395 0.08464 3.61244 3.69708 0.00000 7.34031 1.82140 1.83508 0.99537 10.54199 11.53735 1.00000 0.00000 0.00000 0.00000 150.00000 0.00000
0.92378 5.15335 0.08420 3.56939 3.65359 0.00000 7.19725 1.79387 1.79931 0.97094 10.25893 11.22987 1.00000 0.00000 0.00000 0.00000 150.00000 0.00000
0.92709 5.21269 0.08377 3.52633 3.61010 0.00000 7.05419 1.76635 1.76355 0.94677 9.97965 10.92642 1.00000 0.00000 0.00000 0.00000 150.00000 0.00000
0.93040 5.27181 0.08334 3.47385 3.55719 0.00000 6.88139 1.73862 1.72035 0.91888 9.67681 10.59569 1.00000 0.00000 0.00000 0.00000 150.00000 0.00000
0.93371 5.33116 0.08292 3.41190 3.49482 0.00000 6.67868 1.71069 1.66967 0.88730 9.35158 10.23888 1.00000 0.00000 0.00000 0.00000 150.00000 0.00000
0.93702 5.39122 0.08250 3.34994 3.43245 0.00000 6.47597 1.68277 1.61899 0.85604 9.03188 9.88792 1.00000 0.00000 0.00000 0.00000 150.00000 0.00000
0.94033 5.45246 0.08209 3.28798 3.37008 0.00000 6.27326 1.65484 1.56831 0.82510 8.71771 9.54281 1.00000 0.00000 0.00000 0.00000 150.00000 0.00000
0.94365 5.51523 0.08168 3.22602 3.30771 0.00000 6.07055 1.62691 1.51764 0.79447 8.40908 9.20355 1.00000 0.00000 0.00000 0.00000 150.00000 0.00000
0.94696 5.57917 0.08128 3.14319 3.22447 0.00000 5.79694 1.57159 1.44923 0.75492 7.91452 8.66944 1.00000 0.00000 0.00000 0.00000 150.00000 0.00000
0.95027 5.64422 0.08088 3.05734 3.13822 0.00000 5.51312 1.51231 1.37828 0.71443 7.40800 8.12243 1.00000 0.00000 0.00000 0.00000 150.00000 0.00000
0.95358 5.71038 0.08049 2.97148 3.05197 0.00000 5.22930 1.45304 1.30732 0.67435 6.91777 7.59212 1.00000 0.00000 0.00000 0.00000 150.00000 0.00000
0.95689 5.77765 0.08010 2.88563 2.96572 0.00000 4.94548 1.39376 1.23637 0.63466 6.44384 7.07850 1.00000 0.00000 0.00000 0.00000 150.00000 0.00000
0.96020 5.84589 0.07971 2.79257 2.87228 0.00000 4.63608 1.32416 1.15902 0.59208 5.92462 6.51671 1.00000 0.00000 0.00000 0.00000 150.00000 0.00000
0.96351 5.90903 0.07933 2.67783 2.75716 0.00000 4.24969 1.22348 1.06242 0.54014 5.24924 5.78938 1.00000 0.00000 0.00000 0.00000 150.00000 0.00000
0.96682 5.96848 0.07895 2.56309 2.64204 0.00000 3.86330 1.12280 0.96582 0.48869 4.61086 5.09955 1.00000 0.00000 0.00000 0.00000 150.00000 0.00000
0.97013 6.03077 0.07858 2.44834 2.52692 0.00000 3.47691 1.02212 0.86923 0.43774 4.00949 4.44723 1.00000 0.00000 0.00000 0.00000 150.00000 0.00000
0.97344 6.10247 0.07821 2.33359 2.41180 0.00000 3.09052 0.92144 0.77263 0.38726 3.44514 3.83241 1.00000 0.00000 0.00000 0.00000 150.00000 0.00000
0.97676 6.19011 0.07784 2.19768 2.27552 0.00000 2.65131 0.78800 0.65666 0.33068 2.77463 3.10531 1.00000 0.00000 0.00000 0.00000 150.00000 0.00000
0.98007 6.30347 0.07748 2.04905 2.12653 0.00000 2.18037 0.63487 0.52906 0.27068 2.08428 2.35496 1.00000 0.00000 0.00000 0.00000 150.00000 0.00000
0.98338 6.46596 0.07713 1.90042 1.97754 0.00000 1.70942 0.48175 0.40146 0.21124 1.46685 1.67809 1.00000 0.00000 0.00000 0.00000 150.00000 0.00000
0.98669 6.67582 0.07677 1.75178 1.82855 0.00000 1.23847 0.32862 0.27385 0.15234 0.92235 1.07469 1.00000 0.00000 0.00000 0.00000 150.00000 0.00000
0.99000 6.92671 0.07642 1.60314 1.67956 0.00000 0.76753 0.17550 0.14625 0.09398 0.45078 0.54476 1.00000 0.00000 0.00000 0.00000 150.00000 0.00000
