'Rho(norml. sqrt. toroid. flux)', 'q', 'Beam Ion Density(10^13 cm^-3)', 'Ion Density(10^13 cm^-3)', 'Elec Density(10^13 cm^-3)', 'Impurity Density(10^13 cm^-3)', 'Beam Ion Effective Temp(keV)', 'Ion Temp(keV)', 'Electron Temp(keV)', 'Beam Pressure(kPa)', 'Thermal Pressure(kPa)', 'Equil.Pressure(kPa)', 'Zeff', 'Tor Rot(kHz)', 'Tor Rot(10^5 m/s)', 'RF Ion Density(10^13 cm^-3)', 'RF Ion Effective Temp(keV)', 'RF Pressure(kPa)'
0.00000 1.49597 0.91618 5.08217 6.00137 0.00000 23.70199 5.83814 5.92550 34.79216 47.53795 56.97597 1.00000 0.00000 0.00000 0.00302 150.00000 0.72572
0.00331 1.49642 0.90640 5.09019 6.00091 0.00000 23.69968 5.83532 5.92492 34.41752 47.58990 56.96611 1.00000 0.00000 0.00000 0.00433 150.00000 1.04018
0.00662 1.49704 0.89673 5.09763 6.00046 0.00000 23.69736 5.83249 5.92434 34.04715 47.63644 56.95625 1.00000 0.00000 0.00000 0.00610 150.00000 1.46542
0.00993 1.49781 0.88718 5.10439 6.00001 0.00000 23.69505 5.82967 5.92376 33.68098 47.67651 56.94639 1.00000 0.00000 0.00000 0.00844 150.00000 2.02924
0.01324 1.49873 0.87773 5.11034 5.99956 0.00000 23.69273 5.82685 5.92318 33.31898 47.70896 56.93653 1.00000 0.00000 0.00000 0.01149 150.00000 2.76199
0.01656 1.49980 0.86838 5.11534 5.99910 0.00000 23.69042 5.82403 5.92260 32.96108 47.73257 56.92667 1.00000 0.00000 0.00000 0.01538 150.00000 3.69513
0.01987 1.50101 0.85915 5.11929 5.99865 0.00000 23.68810 5.82120 5.92203 32.60725 47.74620 56.91681 1.00000 0.00000 0.00000 0.02022 150.00000 4.85910
0.02318 1.50236 0.85001 5.12205 5.99820 0.00000 23.68579 5.81838 5.92145 32.25744 47.74883 56.90696 1.00000 0.00000 0.00000 0.02613 150.00000 6.28068
0.02649 1.50383 0.84098 5.12323 5.99744 0.00000 23.68190 5.81735 5.92047 31.90949 47.75139 56.89042 1.00000 0.00000 0.00000 0.03322 150.00000 7.98442
0.02980 1.50543 0.83205 5.12209 5.99613 0.00000 23.67515 5.81957 5.91879 31.56170 47.75900 56.86176 1.00000 0.00000 0.00000 0.04198 150.00000 10.08843
0.03311 1.50715 0.82322 5.11482 5.99481 0.00000 23.66841 5.82179 5.91710 31.21792 47.70941 56.83310 1.00000 0.00000 0.00000 0.05676 150.00000 13.64208
0.03642 1.50899 0.81450 5.08597 5.99350 0.00000 23.66166 5.82402 5.91541 30.87810 47.45836 56.80444 1.00000 0.00000 0.00000 0.09303 150.00000 22.35908
0.03973 1.51093 0.80586 5.03272 5.99218 0.00000 23.65491 5.82624 5.91373 30.54220 46.97944 56.77578 1.00000 0.00000 0.00000 0.15360 150.00000 36.91374
0.04304 1.51297 0.79733 5.01025 5.99026 0.00000 23.64500 5.83250 5.91125 30.20612 46.81995 56.73377 1.00000 0.00000 0.00000 0.18267 150.00000 43.90116
0.04635 1.51511 0.78889 5.04584 5.98810 0.00000 23.63392 5.84024 5.90848 29.87248 47.21516 56.68684 1.00000 0.00000 0.00000 0.15337 150.00000 36.85875
0.04967 1.51734 0.78055 5.08063 5.98595 0.00000 23.62284 5.84799 5.90571 29.54275 47.60375 56.63991 1.00000 0.00000 0.00000 0.12477 150.00000 29.98587
0.05298 1.51966 0.77230 5.08833 5.98380 0.00000 23.61176 5.85574 5.90294 29.21686 47.73904 56.59298 1.00000 0.00000 0.00000 0.12317 150.00000 29.60099
0.05629 1.52206 0.76415 5.08543 5.98157 0.00000 23.60023 5.86229 5.90006 28.89423 47.76524 56.54418 1.00000 0.00000 0.00000 0.13198 150.00000 31.71909
0.05960 1.52453 0.75609 5.08150 5.97860 0.00000 23.58491 5.85869 5.89623 28.57079 47.69902 56.47955 1.00000 0.00000 0.00000 0.14102 150.00000 33.89034
0.06291 1.52707 0.74811 5.07930 5.97564 0.00000 23.56959 5.85510 5.89240 28.25117 47.64914 56.41491 1.00000 0.00000 0.00000 0.14822 150.00000 35.62251
0.06622 1.52968 0.74023 5.07930 5.97268 0.00000 23.55427 5.85150 5.88857 27.93533 47.61990 56.35028 1.00000 0.00000 0.00000 0.15314 150.00000 36.80455
0.06953 1.53234 0.73244 5.08176 5.96971 0.00000 23.53895 5.84791 5.88474 27.62324 47.61362 56.28565 1.00000 0.00000 0.00000 0.15552 150.00000 37.37634
0.07284 1.53506 0.72473 5.08640 5.96637 0.00000 23.52164 5.84083 5.88041 27.31252 47.59944 56.21279 1.00000 0.00000 0.00000 0.15524 150.00000 37.30868
0.07615 1.53782 0.71711 5.09320 5.96262 0.00000 23.50217 5.82998 5.87554 27.00302 47.57455 56.13106 1.00000 0.00000 0.00000 0.15231 150.00000 36.60504
0.07946 1.54063 0.70958 5.10241 5.95887 0.00000 23.48271 5.81914 5.87068 26.69724 47.57190 56.04933 1.00000 0.00000 0.00000 0.14689 150.00000 35.30124
0.08278 1.54347 0.70213 5.11376 5.95513 0.00000 23.46325 5.80829 5.86581 26.39511 47.58887 55.96760 1.00000 0.00000 0.00000 0.13924 150.00000 33.46239
0.08609 1.54634 0.69477 5.12688 5.95138 0.00000 23.44378 5.79745 5.86095 26.09660 47.62189 55.88587 1.00000 0.00000 0.00000 0.12973 150.00000 31.17755
0.08940 1.54923 0.68749 5.14068 5.94697 0.00000 23.42085 5.78758 5.85521 25.79785 47.66881 55.79003 1.00000 0.00000 0.00000 0.11881 150.00000 28.55255
0.09271 1.55215 0.68029 5.15523 5.94246 0.00000 23.39733 5.77787 5.84933 25.50207 47.72356 55.69182 1.00000 0.00000 0.00000 0.10694 150.00000 25.70193
0.09602 1.55508 0.67317 5.17016 5.93795 0.00000 23.37382 5.76817 5.84345 25.20987 47.78135 55.59360 1.00000 0.00000 0.00000 0.09462 150.00000 22.74074
0.09933 1.55822 0.66613 5.18502 5.93344 0.00000 23.35030 5.75846 5.83758 24.92121 47.83804 55.49539 1.00000 0.00000 0.00000 0.08229 150.00000 19.77705
0.10264 1.56173 0.65917 5.19924 5.92876 0.00000 23.32587 5.74847 5.83147 24.63508 47.88608 55.39350 1.00000 0.00000 0.00000 0.07034 150.00000 16.90582
0.10595 1.56555 0.65229 5.21211 5.92351 0.00000 23.29837 5.73756 5.82459 24.34921 47.91346 55.27937 1.00000 0.00000 0.00000 0.05910 150.00000 14.20460
0.10926 1.56967 0.64549 5.22395 5.91826 0.00000 23.27087 5.72665 5.81772 24.06685 47.93098 55.16524 1.00000 0.00000 0.00000 0.04881 150.00000 11.73113
0.11258 1.57402 0.63876 5.23461 5.91300 0.00000 23.24338 5.71573 5.81084 23.78794 47.93728 55.05111 1.00000 0.00000 0.00000 0.03962 150.00000 9.52288
0.11589 1.57858 0.63211 5.24402 5.90775 0.00000 23.21588 5.70482 5.80397 23.51244 47.93172 54.93699 1.00000 0.00000 0.00000 0.03162 150.00000 7.59828
0.11920 1.58331 0.62554 5.25173 5.90206 0.00000 23.18601 5.69473 5.79650 23.23793 47.91723 54.81354 1.00000 0.00000 0.00000 0.02480 150.00000 5.95909
0.12251 1.58816 0.61904 5.25793 5.89609 0.00000 23.15459 5.68516 5.78865 22.96527 47.89332 54.68406 1.00000 0.00000 0.00000 0.01911 150.00000 4.59370
0.12582 1.59309 0.61261 5.26302 5.89011 0.00000 23.12318 5.67560 5.78080 22.69598 47.85901 54.55457 1.00000 0.00000 0.00000 0.01448 150.00000 3.48067
0.12913 1.59807 0.60626 5.26710 5.88414 0.00000 23.09177 5.66604 5.77294 22.43001 47.81541 54.42509 1.00000 0.00000 0.00000 0.01079 150.00000 2.59228
0.13244 1.60307 0.59997 5.27030 5.87817 0.00000 23.06035 5.65648 5.76509 22.16734 47.76372 54.29561 1.00000 0.00000 0.00000 0.00790 150.00000 1.89766
0.13575 1.60802 0.59376 5.27206 5.87150 0.00000 23.02515 5.64510 5.75629 21.90430 47.68362 54.15161 1.00000 0.00000 0.00000 0.00568 150.00000 1.36544
0.13906 1.61297 0.58762 5.27320 5.86483 0.00000 22.98989 5.63369 5.74747 21.64449 47.59746 54.00736 1.00000 0.00000 0.00000 0.00402 150.00000 0.96571
0.14237 1.61807 0.58154 5.27382 5.85815 0.00000 22.95462 5.62228 5.73865 21.38791 47.50668 53.86311 1.00000 0.00000 0.00000 0.00279 150.00000 0.67133
0.14569 1.62332 0.57554 5.27403 5.85148 0.00000 22.91935 5.61087 5.72984 21.13453 47.41221 53.71885 1.00000 0.00000 0.00000 0.00191 150.00000 0.45872
0.14900 1.62869 0.56960 5.27368 5.84456 0.00000 22.88273 5.59922 5.72068 20.88308 47.31053 53.56954 1.00000 0.00000 0.00000 0.00128 150.00000 0.30808
0.15231 1.63416 0.56373 5.27263 5.83721 0.00000 22.84367 5.58711 5.71092 20.63257 47.19886 53.41112 1.00000 0.00000 0.00000 0.00085 150.00000 0.20338
0.15562 1.63972 0.55793 5.27138 5.82985 0.00000 22.80461 5.57501 5.70115 20.38521 47.08540 53.25271 1.00000 0.00000 0.00000 0.00055 150.00000 0.13197
0.15893 1.64534 0.55219 5.26996 5.82249 0.00000 22.76554 5.56290 5.69139 20.14096 46.97054 53.09430 1.00000 0.00000 0.00000 0.00035 150.00000 0.08417
0.16224 1.65099 0.54651 5.26841 5.81514 0.00000 22.72648 5.55080 5.68162 19.89979 46.85455 52.93589 1.00000 0.00000 0.00000 0.00022 150.00000 0.05277
0.16555 1.65667 0.54090 5.26626 5.80730 0.00000 22.68469 5.53949 5.67117 19.65929 46.74002 52.76757 1.00000 0.00000 0.00000 0.00014 150.00000 0.03251
0.16886 1.66234 0.53535 5.26385 5.79928 0.00000 22.64190 5.52846 5.66047 19.42097 46.62560 52.59563 1.00000 0.00000 0.00000 0.00008 150.00000 0.01969
0.17217 1.66803 0.52987 5.26135 5.79127 0.00000 22.59911 5.51744 5.64978 19.18568 46.51054 52.42370 1.00000 0.00000 0.00000 0.00005 150.00000 0.01172
0.17548 1.67382 0.52445 5.25878 5.78325 0.00000 22.55631 5.50641 5.63908 18.95337 46.39491 52.25176 1.00000 0.00000 0.00000 0.00003 150.00000 0.00686
0.17880 1.67967 0.51909 5.25607 5.77517 0.00000 22.51313 5.49533 5.62828 18.72368 46.27768 52.07843 1.00000 0.00000 0.00000 0.00002 150.00000 0.00395
0.18211 1.68556 0.51378 5.25272 5.76652 0.00000 22.46667 5.48380 5.61667 18.49423 46.15120 51.89365 1.00000 0.00000 0.00000 0.00001 150.00000 0.00223
0.18542 1.69149 0.50854 5.24932 5.75786 0.00000 22.42022 5.47227 5.60505 18.26770 46.02428 51.70887 1.00000 0.00000 0.00000 0.00001 150.00000 0.00124
0.18873 1.69743 0.50336 5.24585 5.74921 0.00000 22.37376 5.46074 5.59344 18.04408 45.89696 51.52409 1.00000 0.00000 0.00000 0.00000 150.00000 0.00068
0.19204 1.70336 0.49824 5.24232 5.74056 0.00000 22.32731 5.44921 5.58183 17.82331 45.76925 51.33931 1.00000 0.00000 0.00000 0.00000 150.00000 0.00036
0.19535 1.70927 0.49317 5.23843 5.73161 0.00000 22.27912 5.43700 5.56978 17.60400 45.63281 51.14865 1.00000 0.00000 0.00000 0.00000 150.00000 0.00019
0.19866 1.71515 0.48816 5.23418 5.72234 0.00000 22.22907 5.42405 5.55727 17.38606 45.48712 50.95173 1.00000 0.00000 0.00000 0.00000 150.00000 0.00010
0.20197 1.72103 0.48321 5.22986 5.71307 0.00000 22.17903 5.41110 5.54476 17.17092 45.34111 50.75480 1.00000 0.00000 0.00000 0.00000 150.00000 0.00005
0.20528 1.72690 0.47831 5.22549 5.70380 0.00000 22.12899 5.39815 5.53225 16.95856 45.19480 50.55788 1.00000 0.00000 0.00000 0.00000 150.00000 0.00003
0.20860 1.73278 0.47347 5.22106 5.69453 0.00000 22.07894 5.38520 5.51974 16.74893 45.04819 50.36095 1.00000 0.00000 0.00000 0.00000 150.00000 0.00001
0.21191 1.73866 0.46868 5.21607 5.68475 0.00000 22.02587 5.37196 5.50647 16.53973 44.89451 50.15419 1.00000 0.00000 0.00000 0.00000 150.00000 0.00001
0.21522 1.74453 0.46395 5.21094 5.67489 0.00000 21.97229 5.35868 5.49307 16.33288 44.73946 49.94582 1.00000 0.00000 0.00000 0.00000 150.00000 0.00000
0.21853 1.75040 0.45927 5.20576 5.66503 0.00000 21.91872 5.34540 5.47968 16.12871 44.58417 49.73744 1.00000 0.00000 0.00000 0.00000 150.00000 0.00000
0.22184 1.75627 0.45464 5.20052 5.65517 0.00000 21.86515 5.33211 5.46629 15.92719 44.42865 49.52906 1.00000 0.00000 0.00000 0.00000 150.00000 0.00000
0.22515 1.76218 0.45007 5.19510 5.64517 0.00000 21.81076 5.31868 5.45269 15.72770 44.27050 49.31815 1.00000 0.00000 0.00000 0.00000 150.00000 0.00000
0.22846 1.76816 0.44554 5.18919 5.63474 0.00000 21.75371 5.30474 5.43843 15.52890 44.10428 49.09897 1.00000 0.00000 0.00000 0.00000 150.00000 0.00000
0.23177 1.77416 0.44107 5.18323 5.62430 0.00000 21.69665 5.29081 5.42416 15.33270 43.93788 48.87979 1.00000 0.00000 0.00000 0.00000 150.00000 0.00000
0.23508 1.78012 0.43665 5.17722 5.61387 0.00000 21.63959 5.27687 5.40990 15.13906 43.77133 48.66061 1.00000 0.00000 0.00000 0.00000 150.00000 0.00000
0.23839 1.78598 0.43228 5.17116 5.60343 0.00000 21.58254 5.26294 5.39563 14.94796 43.60463 48.44143 1.00000 0.00000 0.00000 0.00000 150.00000 0.00000
0.24171 1.79169 0.42795 5.16471 5.59266 0.00000 21.52339 5.24846 5.38085 14.75792 43.43045 48.21608 1.00000 0.00000 0.00000 0.00000 150.00000 0.00000
0.24502 1.79719 0.42368 5.15800 5.58168 0.00000 21.46289 5.23363 5.36572 14.56946 43.25147 47.98676 1.00000 0.00000 0.00000 0.00000 150.00000 0.00001
0.24833 1.80251 0.41945 5.15124 5.57069 0.00000 21.40240 5.21880 5.35060 14.38348 43.07241 47.75745 1.00000 0.00000 0.00000 0.00000 150.00000 0.00002
0.25164 1.80770 0.41528 5.14443 5.55971 0.00000 21.34190 5.20397 5.33548 14.19995 42.89327 47.52814 1.00000 0.00000 0.00000 0.00000 150.00000 0.00006
0.25495 1.81277 0.41114 5.13758 5.54872 0.00000 21.28141 5.18914 5.32035 14.01884 42.71407 47.29883 1.00000 0.00000 0.00000 0.00000 150.00000 0.00016
0.25826 1.81774 0.40706 5.13017 5.53723 0.00000 21.21764 5.17358 5.30441 13.83797 42.52455 47.06045 1.00000 0.00000 0.00000 0.00000 150.00000 0.00039
0.26157 1.82262 0.40302 5.12270 5.52573 0.00000 21.15382 5.15801 5.28845 13.65946 42.33486 46.82193 1.00000 0.00000 0.00000 0.00000 150.00000 0.00087
0.26488 1.82742 0.39903 5.11519 5.51423 0.00000 21.09000 5.14244 5.27250 13.48332 42.14514 46.58341 1.00000 0.00000 0.00000 0.00001 150.00000 0.00185
0.26819 1.83218 0.39508 5.10763 5.50272 0.00000 21.02617 5.12686 5.25654 13.30952 41.95541 46.34488 1.00000 0.00000 0.00000 0.00002 150.00000 0.00374
0.27151 1.83694 0.39118 5.09985 5.49105 0.00000 20.96121 5.11118 5.24030 13.13729 41.76334 46.10344 1.00000 0.00000 0.00000 0.00003 150.00000 0.00715
0.27482 1.84164 0.38732 5.09170 5.47907 0.00000 20.89422 5.09531 5.22356 12.96610 41.56717 45.85680 1.00000 0.00000 0.00000 0.00005 150.00000 0.01294
0.27813 1.84623 0.38350 5.08351 5.46710 0.00000 20.82723 5.07943 5.20681 12.79719 41.37094 45.61015 1.00000 0.00000 0.00000 0.00009 150.00000 0.02218
0.28144 1.85064 0.37973 5.07524 5.45512 0.00000 20.76024 5.06356 5.19006 12.63052 41.17463 45.36351 1.00000 0.00000 0.00000 0.00015 150.00000 0.03598
0.28475 1.85481 0.37600 5.06692 5.44314 0.00000 20.69325 5.04769 5.17331 12.46608 40.97821 45.11687 1.00000 0.00000 0.00000 0.00023 150.00000 0.05524
0.28806 1.85868 0.37231 5.05821 5.43085 0.00000 20.62406 5.02058 5.15601 12.30251 40.68806 44.86507 1.00000 0.00000 0.00000 0.00033 150.00000 0.08030
0.29137 1.86234 0.36866 5.04932 5.41844 0.00000 20.55407 4.98942 5.13852 12.14065 40.36455 44.61141 1.00000 0.00000 0.00000 0.00046 150.00000 0.11051
0.29468 1.86581 0.36506 5.04038 5.40603 0.00000 20.48408 4.95827 5.12102 11.98097 40.04151 44.35775 1.00000 0.00000 0.00000 0.00060 150.00000 0.14396
0.29799 1.86915 0.36149 5.03140 5.39363 0.00000 20.41408 4.92712 5.10352 11.82342 39.71902 44.10409 1.00000 0.00000 0.00000 0.00074 150.00000 0.17753
0.30130 1.87238 0.35797 5.02235 5.38118 0.00000 20.34378 4.89768 5.08595 11.66780 39.41070 43.84979 1.00000 0.00000 0.00000 0.00086 150.00000 0.20726
0.30462 1.87553 0.35448 5.01295 5.36839 0.00000 20.27098 4.88198 5.06775 11.51285 39.21089 43.59031 1.00000 0.00000 0.00000 0.00095 150.00000 0.22905
0.30793 1.87867 0.35103 5.00357 5.35560 0.00000 20.19819 4.86628 5.04955 11.35999 39.01161 43.33082 1.00000 0.00000 0.00000 0.00100 150.00000 0.23964
0.31124 1.88181 0.34763 4.99420 5.34281 0.00000 20.12539 4.85058 5.03135 11.20918 38.81292 43.07134 1.00000 0.00000 0.00000 0.00099 150.00000 0.23734
0.31455 1.88488 0.34426 4.98484 5.33002 0.00000 20.05259 4.83489 5.01315 11.06040 38.61481 42.81186 1.00000 0.00000 0.00000 0.00093 150.00000 0.22253
0.31786 1.88776 0.34093 4.97532 5.31707 0.00000 19.97853 4.81968 4.99463 10.91293 38.41993 42.55012 1.00000 0.00000 0.00000 0.00082 150.00000 0.19751
0.32117 1.89039 0.33763 4.96563 5.30395 0.00000 19.90312 4.80501 4.97578 10.76672 38.22831 42.28600 1.00000 0.00000 0.00000 0.00069 150.00000 0.16595
0.32448 1.89268 0.33438 4.95591 5.29084 0.00000 19.82772 4.79033 4.95693 10.62248 38.03694 42.02188 1.00000 0.00000 0.00000 0.00055 150.00000 0.13200
0.32779 1.89482 0.33116 4.94615 5.27772 0.00000 19.75231 4.77565 4.93808 10.48020 37.84570 41.75776 1.00000 0.00000 0.00000 0.00041 150.00000 0.09940
0.33110 1.89681 0.32797 4.93633 5.26460 0.00000 19.67691 4.76098 4.91923 10.33984 37.65451 41.49364 1.00000 0.00000 0.00000 0.00029 150.00000 0.07085
0.33441 1.89861 0.32483 4.92622 5.25125 0.00000 19.59947 4.74913 4.89987 10.20031 37.48387 41.22662 1.00000 0.00000 0.00000 0.00020 150.00000 0.04781
0.33773 1.90017 0.32172 4.91602 5.23786 0.00000 19.52170 4.73773 4.88042 10.06250 37.31646 40.95914 1.00000 0.00000 0.00000 0.00013 150.00000 0.03054
0.34104 1.90143 0.31864 4.90576 5.22447 0.00000 19.44393 4.72633 4.86098 9.92656 37.14899 40.69166 1.00000 0.00000 0.00000 0.00008 150.00000 0.01847
0.34435 1.90251 0.31560 4.89544 5.21108 0.00000 19.36616 4.71494 4.84154 9.79246 36.98150 40.42419 1.00000 0.00000 0.00000 0.00004 150.00000 0.01057
0.34766 1.90350 0.31259 4.88503 5.19764 0.00000 19.28789 4.70171 4.82197 9.65994 36.79934 40.15623 1.00000 0.00000 0.00000 0.00002 150.00000 0.00573
0.35097 1.90434 0.30961 4.87442 5.18405 0.00000 19.20803 4.68258 4.80201 9.52842 36.57002 39.88675 1.00000 0.00000 0.00000 0.00001 150.00000 0.00294
0.35428 1.90501 0.30667 4.86378 5.17046 0.00000 19.12817 4.66345 4.78204 9.39869 36.34106 39.61727 1.00000 0.00000 0.00000 0.00001 150.00000 0.00143
0.35759 1.90547 0.30377 4.85309 5.15686 0.00000 19.04832 4.64432 4.76208 9.27072 36.11249 39.34779 1.00000 0.00000 0.00000 0.00000 150.00000 0.00066
0.36090 1.90584 0.30089 4.84237 5.14327 0.00000 18.96846 4.62519 4.74211 9.14449 35.88431 39.07830 1.00000 0.00000 0.00000 0.00000 150.00000 0.00029
0.36421 1.90616 0.29805 4.83154 5.12959 0.00000 18.88749 4.60565 4.72187 9.01945 35.65275 38.80841 1.00000 0.00000 0.00000 0.00000 150.00000 0.00012
0.36753 1.90641 0.29524 4.82061 5.11585 0.00000 18.80583 4.58585 4.70146 8.89579 35.41922 38.53825 1.00000 0.00000 0.00000 0.00000 150.00000 0.00005
0.37084 1.90656 0.29246 4.80966 5.10212 0.00000 18.72417 4.56605 4.68104 8.77381 35.18616 38.26809 1.00000 0.00000 0.00000 0.00000 150.00000 0.00002
0.37415 1.90655 0.28971 4.79867 5.08839 0.00000 18.64251 4.54625 4.66063 8.65349 34.95356 37.99794 1.00000 0.00000 0.00000 0.00000 150.00000 0.00001
0.37746 1.90619 0.28700 4.78766 5.07465 0.00000 18.56085 4.52645 4.64021 8.53481 34.72144 37.72778 1.00000 0.00000 0.00000 0.00000 150.00000 0.00000
0.38077 1.90555 0.28431 4.77654 5.06086 0.00000 18.47772 4.50604 4.61943 8.41708 34.48461 37.45832 1.00000 0.00000 0.00000 0.00000 150.00000 0.00000
0.38408 1.90473 0.28166 4.76540 5.04706 0.00000 18.39458 4.48562 4.59865 8.30095 34.24823 37.18886 1.00000 0.00000 0.00000 0.00000 150.00000 0.00000
0.38739 1.90385 0.27903 4.75422 5.03326 0.00000 18.31144 4.46519 4.57786 8.18641 34.01237 36.91941 1.00000 0.00000 0.00000 0.00000 150.00000 0.00000
0.39070 1.90286 0.27644 4.74302 5.01946 0.00000 18.22830 4.44477 4.55707 8.07343 33.77702 36.64996 1.00000 0.00000 0.00000 0.00000 150.00000 0.00000
0.39401 1.90158 0.27387 4.73179 5.00566 0.00000 18.14474 4.42455 4.53618 7.96181 33.54375 36.38124 1.00000 0.00000 0.00000 0.00000 150.00000 0.00000
0.39732 1.90010 0.27133 4.72054 4.99187 0.00000 18.06045 4.40469 4.51511 7.85139 33.31373 36.11383 1.00000 0.00000 0.00000 0.00000 150.00000 0.00000
0.40064 1.89855 0.26882 4.70926 4.97808 0.00000 17.97616 4.38482 4.49404 7.74249 33.08423 35.84642 1.00000 0.00000 0.00000 0.00000 150.00000 0.00000
0.40395 1.89698 0.26634 4.69795 4.96429 0.00000 17.89187 4.36496 4.47297 7.63507 32.85525 35.57901 1.00000 0.00000 0.00000 0.00000 150.00000 0.00000
0.40726 1.89533 0.26389 4.68661 4.95050 0.00000 17.80758 4.34509 4.45189 7.52912 32.62679 35.31160 1.00000 0.00000 0.00000 0.00000 150.00000 0.00000
0.41057 1.89358 0.26146 4.67531 4.93677 0.00000 17.72269 4.32462 4.43067 7.42437 32.39473 35.04661 1.00000 0.00000 0.00000 0.00000 150.00000 0.00000
0.41388 1.89174 0.25907 4.66400 4.92306 0.00000 17.63759 4.30393 4.40940 7.32096 32.16176 34.78249 1.00000 0.00000 0.00000 0.00000 150.00000 0.00000
0.41719 1.88981 0.25670 4.65266 4.90935 0.00000 17.55249 4.28324 4.38812 7.21896 31.92935 34.51837 1.00000 0.00000 0.00000 0.00000 150.00000 0.00000
0.42050 1.88776 0.25435 4.64129 4.89565 0.00000 17.46739 4.26255 4.36685 7.11836 31.69751 34.25425 1.00000 0.00000 0.00000 0.00000 150.00000 0.00000
0.42381 1.88558 0.25203 4.62992 4.88196 0.00000 17.38224 4.24189 4.34556 7.01912 31.46659 33.99063 1.00000 0.00000 0.00000 0.00000 150.00000 0.00000
0.42712 1.88334 0.24974 4.61866 4.86840 0.00000 17.29667 4.22147 4.32417 6.92106 31.23893 33.73096 1.00000 0.00000 0.00000 0.00000 150.00000 0.00000
0.43043 1.88106 0.24748 4.60736 4.85484 0.00000 17.21110 4.20105 4.30278 6.82434 31.01183 33.47129 1.00000 0.00000 0.00000 0.00000 150.00000 0.00000
0.43375 1.87871 0.24524 4.59605 4.84128 0.00000 17.12553 4.18063 4.28138 6.72895 30.78530 33.21162 1.00000 0.00000 0.00000 0.00000 150.00000 0.00000
0.43706 1.87630 0.24302 4.58471 4.82773 0.00000 17.03997 4.16022 4.25999 6.63486 30.55934 32.95195 1.00000 0.00000 0.00000 0.00000 150.00000 0.00000
0.44037 1.87387 0.24083 4.57345 4.81428 0.00000 16.95434 4.13956 4.23858 6.54203 30.33295 32.69498 1.00000 0.00000 0.00000 0.00000 150.00000 0.00000
0.44368 1.87149 0.23867 4.56228 4.80094 0.00000 16.86865 4.11866 4.21716 6.45045 30.10610 32.44084 1.00000 0.00000 0.00000 0.00000 150.00000 0.00000
0.44699 1.86910 0.23653 4.55108 4.78761 0.00000 16.78296 4.09776 4.19574 6.36011 29.87983 32.18671 1.00000 0.00000 0.00000 0.00000 150.00000 0.00000
0.45030 1.86672 0.23441 4.53986 4.77427 0.00000 16.69727 4.07686 4.17432 6.27101 29.65416 31.93257 1.00000 0.00000 0.00000 0.00000 150.00000 0.00000
0.45361 1.86441 0.23232 4.52862 4.76094 0.00000 16.61158 4.05597 4.15289 6.18313 29.42908 31.67843 1.00000 0.00000 0.00000 0.00000 150.00000 0.00000
0.45692 1.86221 0.23025 4.51761 4.74785 0.00000 16.52607 4.03609 4.13152 6.09651 29.21369 31.42997 1.00000 0.00000 0.00000 0.00000 150.00000 0.00000
0.46023 1.86005 0.22820 4.50661 4.73481 0.00000 16.44060 4.01638 4.11015 6.01109 29.00027 31.18239 1.00000 0.00000 0.00000 0.00000 150.00000 0.00000
0.46355 1.85798 0.22618 4.49559 4.72177 0.00000 16.35513 3.99667 4.08878 5.92683 28.78739 30.93482 1.00000 0.00000 0.00000 0.00000 150.00000 0.00000
0.46686 1.85608 0.22418 4.48455 4.70873 0.00000 16.26966 3.97696 4.06742 5.84372 28.57507 30.68724 1.00000 0.00000 0.00000 0.00000 150.00000 0.00000
0.47017 1.85437 0.22220 4.47358 4.69578 0.00000 16.18432 3.95713 4.04608 5.76179 28.36301 30.44147 1.00000 0.00000 0.00000 0.00000 150.00000 0.00000
0.47348 1.85278 0.22025 4.46286 4.68311 0.00000 16.09942 3.93692 4.02485 5.68113 28.15055 30.20141 1.00000 0.00000 0.00000 0.00000 150.00000 0.00000
0.47679 1.85134 0.21831 4.45213 4.67044 0.00000 16.01451 3.91671 4.00363 5.60156 27.93865 29.96135 1.00000 0.00000 0.00000 0.00000 150.00000 0.00000
0.48010 1.85007 0.21640 4.44137 4.65777 0.00000 15.92960 3.89650 3.98240 5.52308 27.72731 29.72129 1.00000 0.00000 0.00000 0.00000 150.00000 0.00000
0.48341 1.84883 0.21451 4.43059 4.64510 0.00000 15.84469 3.87628 3.96117 5.44566 27.51653 29.48123 1.00000 0.00000 0.00000 0.00000 150.00000 0.00000
0.48672 1.84774 0.21264 4.42005 4.63269 0.00000 15.76031 3.85572 3.94008 5.36948 27.30544 29.24624 1.00000 0.00000 0.00000 0.00000 150.00000 0.00000
0.49003 1.84700 0.21080 4.40966 4.62046 0.00000 15.67626 3.83493 3.91907 5.29444 27.09437 29.01443 1.00000 0.00000 0.00000 0.00000 150.00000 0.00000
0.49334 1.84665 0.20897 4.39925 4.60822 0.00000 15.59222 3.81414 3.89805 5.22042 26.88386 28.78262 1.00000 0.00000 0.00000 0.00000 150.00000 0.00000
0.49666 1.84637 0.20716 4.38882 4.59598 0.00000 15.50817 3.79335 3.87704 5.14740 26.67393 28.55081 1.00000 0.00000 0.00000 0.00000 150.00000 0.00000
0.49997 1.84621 0.20538 4.37837 4.58374 0.00000 15.42413 3.77256 3.85603 5.07537 26.46456 28.31899 1.00000 0.00000 0.00000 0.00000 150.00000 0.00000
0.50328 1.84622 0.20361 4.36836 4.57197 0.00000 15.34116 3.75313 3.83529 5.00468 26.26810 28.09574 1.00000 0.00000 0.00000 0.00000 150.00000 0.00000
0.50659 1.84663 0.20187 4.35835 4.56021 0.00000 15.25821 3.73371 3.81455 4.93494 26.07228 27.87258 1.00000 0.00000 0.00000 0.00000 150.00000 0.00000
0.50990 1.84735 0.20014 4.34831 4.54845 0.00000 15.17526 3.71429 3.79381 4.86614 25.87696 27.64942 1.00000 0.00000 0.00000 0.00000 150.00000 0.00000
0.51321 1.84818 0.19843 4.33825 4.53668 0.00000 15.09231 3.69488 3.77308 4.79827 25.68214 27.42626 1.00000 0.00000 0.00000 0.00000 150.00000 0.00000
0.51652 1.84935 0.19675 4.32836 4.52511 0.00000 15.00983 3.67531 3.75246 4.73147 25.48790 27.20637 1.00000 0.00000 0.00000 0.00000 150.00000 0.00000
0.51983 1.85094 0.19508 4.31878 4.51386 0.00000 14.92819 3.65548 3.73205 4.66584 25.29427 26.99219 1.00000 0.00000 0.00000 0.00000 150.00000 0.00000
0.52314 1.85276 0.19343 4.30918 4.50261 0.00000 14.84655 3.63565 3.71164 4.60108 25.10114 26.77801 1.00000 0.00000 0.00000 0.00000 150.00000 0.00000
0.52645 1.85482 0.19180 4.29956 4.49136 0.00000 14.76491 3.61582 3.69123 4.53720 24.90850 26.56383 1.00000 0.00000 0.00000 0.00000 150.00000 0.00000
0.52977 1.85727 0.19018 4.28992 4.48011 0.00000 14.68327 3.59599 3.67082 4.47417 24.71638 26.34965 1.00000 0.00000 0.00000 0.00000 150.00000 0.00000
0.53308 1.85997 0.18859 4.28068 4.46927 0.00000 14.60274 3.57647 3.65069 4.41233 24.52924 26.14231 1.00000 0.00000 0.00000 0.00000 150.00000 0.00000
0.53639 1.86283 0.18701 4.27156 4.45857 0.00000 14.52259 3.55706 3.63065 4.35143 24.34414 25.93736 1.00000 0.00000 0.00000 0.00000 150.00000 0.00000
0.53970 1.86596 0.18545 4.26242 4.44788 0.00000 14.44245 3.53765 3.61061 4.29135 24.15950 25.73241 1.00000 0.00000 0.00000 0.00000 150.00000 0.00000
0.54301 1.86937 0.18391 4.25327 4.43718 0.00000 14.36230 3.51824 3.59058 4.23207 23.97534 25.52746 1.00000 0.00000 0.00000 0.00000 150.00000 0.00000
0.54632 1.87306 0.18239 4.24417 4.42656 0.00000 14.28234 3.49891 3.57059 4.17364 23.79263 25.32360 1.00000 0.00000 0.00000 0.00000 150.00000 0.00000
0.54963 1.87712 0.18088 4.23558 4.41647 0.00000 14.20385 3.48026 3.55096 4.11642 23.61792 25.12807 1.00000 0.00000 0.00000 0.00000 150.00000 0.00000
0.55294 1.88150 0.17939 4.22698 4.40637 0.00000 14.12535 3.46161 3.53134 4.05996 23.44362 24.93254 1.00000 0.00000 0.00000 0.00000 150.00000 0.00000
0.55625 1.88614 0.17792 4.21836 4.39628 0.00000 14.04686 3.44296 3.51171 4.00425 23.26975 24.73701 1.00000 0.00000 0.00000 0.00000 150.00000 0.00000
0.55957 1.89110 0.17646 4.20972 4.38618 0.00000 13.96836 3.42431 3.49209 3.94928 23.09630 24.54148 1.00000 0.00000 0.00000 0.00000 150.00000 0.00000
0.56288 1.89638 0.17502 4.20138 4.37640 0.00000 13.89074 3.40500 3.47268 3.89529 22.92059 24.35060 1.00000 0.00000 0.00000 0.00000 150.00000 0.00000
0.56619 1.90195 0.17360 4.19334 4.36695 0.00000 13.81402 3.38502 3.45350 3.84227 22.74252 24.16456 1.00000 0.00000 0.00000 0.00000 150.00000 0.00000
0.56950 1.90787 0.17219 4.18530 4.35749 0.00000 13.73730 3.36504 3.43432 3.78995 22.56488 23.97852 1.00000 0.00000 0.00000 0.00000 150.00000 0.00000
0.57281 1.91414 0.17080 4.17723 4.34803 0.00000 13.66058 3.34506 3.41514 3.73833 22.38767 23.79247 1.00000 0.00000 0.00000 0.00000 150.00000 0.00000
0.57612 1.92068 0.16943 4.16915 4.33858 0.00000 13.58386 3.32508 3.39596 3.68739 22.21090 23.60643 1.00000 0.00000 0.00000 0.00000 150.00000 0.00000
0.57943 1.92756 0.16807 4.16163 4.32969 0.00000 13.50871 3.30796 3.37718 3.63754 22.05667 23.42845 1.00000 0.00000 0.00000 0.00000 150.00000 0.00000
0.58274 1.93477 0.16672 4.15417 4.32089 0.00000 13.43381 3.29128 3.35845 3.58842 21.90618 23.25171 1.00000 0.00000 0.00000 0.00000 150.00000 0.00000
0.58605 1.94227 0.16539 4.14671 4.31210 0.00000 13.35891 3.27461 3.33973 3.53995 21.75601 23.07498 1.00000 0.00000 0.00000 0.00000 150.00000 0.00000
0.58936 1.95010 0.16407 4.13922 4.30330 0.00000 13.28401 3.25793 3.32100 3.49211 21.60616 22.89824 1.00000 0.00000 0.00000 0.00000 150.00000 0.00000
0.59268 1.95827 0.16277 4.13189 4.29467 0.00000 13.20955 3.24109 3.30239 3.44502 21.45643 22.72370 1.00000 0.00000 0.00000 0.00000 150.00000 0.00000
0.59599 1.96674 0.16149 4.12506 4.28655 0.00000 13.13650 3.22376 3.28412 3.39891 21.30638 22.55606 1.00000 0.00000 0.00000 0.00000 150.00000 0.00000
0.59930 1.97555 0.16022 4.11821 4.27843 0.00000 13.06344 3.20643 3.26586 3.35341 21.15663 22.38841 1.00000 0.00000 0.00000 0.00000 150.00000 0.00000
0.60261 1.98470 0.15896 4.11135 4.27031 0.00000 12.99039 3.18909 3.24760 3.30850 21.00720 22.22077 1.00000 0.00000 0.00000 0.00000 150.00000 0.00000
0.60592 1.99417 0.15772 4.10447 4.26219 0.00000 12.91733 3.17176 3.22933 3.26418 20.85807 22.05313 1.00000 0.00000 0.00000 0.00000 150.00000 0.00000
0.60923 2.00397 0.15649 4.09802 4.25451 0.00000 12.84544 3.15429 3.21136 3.22073 20.71057 21.89101 1.00000 0.00000 0.00000 0.00000 150.00000 0.00000
0.61254 2.01413 0.15528 4.09182 4.24710 0.00000 12.77428 3.13673 3.19357 3.17802 20.56417 21.73232 1.00000 0.00000 0.00000 0.00000 150.00000 0.00000
0.61585 2.02462 0.15407 4.08561 4.23969 0.00000 12.70311 3.11918 3.17578 3.13587 20.41805 21.57363 1.00000 0.00000 0.00000 0.00000 150.00000 0.00000
0.61916 2.03549 0.15289 4.07939 4.23228 0.00000 12.63195 3.10162 3.15799 3.09427 20.27221 21.41494 1.00000 0.00000 0.00000 0.00000 150.00000 0.00000
0.62247 2.04672 0.15171 4.07315 4.22487 0.00000 12.56078 3.08407 3.14020 3.05321 20.12666 21.25625 1.00000 0.00000 0.00000 0.00000 150.00000 0.00000
0.62579 2.05828 0.15055 4.06765 4.21820 0.00000 12.49154 3.06670 3.12288 3.01315 19.98625 21.10636 1.00000 0.00000 0.00000 0.00000 150.00000 0.00000
0.62910 2.07019 0.14940 4.06213 4.21153 0.00000 12.42231 3.04934 3.10558 2.97361 19.84612 20.95654 1.00000 0.00000 0.00000 0.00000 150.00000 0.00000
0.63241 2.08246 0.14827 4.05660 4.20487 0.00000 12.35309 3.03197 3.08827 2.93457 19.70624 20.80672 1.00000 0.00000 0.00000 0.00000 150.00000 0.00000
0.63572 2.09510 0.14715 4.05106 4.19821 0.00000 12.28386 3.01460 3.07096 2.89605 19.56659 20.65689 1.00000 0.00000 0.00000 0.00000 150.00000 0.00000
0.63903 2.10813 0.14604 4.04579 4.19183 0.00000 12.21537 2.99705 3.05384 2.85819 19.42737 20.51032 1.00000 0.00000 0.00000 0.00000 150.00000 0.00000
0.64234 2.12155 0.14494 4.04101 4.18596 0.00000 12.14815 2.97917 3.03704 2.82111 19.28865 20.36932 1.00000 0.00000 0.00000 0.00000 150.00000 0.00000
0.64565 2.13534 0.14386 4.03622 4.18008 0.00000 12.08093 2.96128 3.02023 2.78450 19.15014 20.22832 1.00000 0.00000 0.00000 0.00000 150.00000 0.00000
0.64896 2.14955 0.14278 4.03142 4.17421 0.00000 12.01370 2.94340 3.00343 2.74837 19.01185 20.08732 1.00000 0.00000 0.00000 0.00000 150.00000 0.00000
0.65227 2.16415 0.14172 4.02661 4.16833 0.00000 11.94648 2.92552 2.98662 2.71270 18.87378 19.94633 1.00000 0.00000 0.00000 0.00000 150.00000 0.00000
0.65559 2.17909 0.14068 4.02241 4.16309 0.00000 11.88085 2.90959 2.97021 2.67784 18.75143 19.81199 1.00000 0.00000 0.00000 0.00000 150.00000 0.00000
0.65890 2.19438 0.13964 4.01842 4.15806 0.00000 11.81576 2.89433 2.95394 2.64355 18.63459 19.67995 1.00000 0.00000 0.00000 0.00000 150.00000 0.00000
0.66221 2.21005 0.13861 4.01442 4.15304 0.00000 11.75067 2.87907 2.93767 2.60969 18.51790 19.54792 1.00000 0.00000 0.00000 0.00000 150.00000 0.00000
0.66552 2.22611 0.13760 4.01041 4.14801 0.00000 11.68559 2.86381 2.92140 2.57627 18.40134 19.41588 1.00000 0.00000 0.00000 0.00000 150.00000 0.00000
0.66883 2.24259 0.13660 4.00650 4.14310 0.00000 11.62077 2.84840 2.90519 2.54333 18.28446 19.28493 1.00000 0.00000 0.00000 0.00000 150.00000 0.00000
0.67214 2.25949 0.13561 4.00338 4.13899 0.00000 11.55796 2.83186 2.88949 2.51124 18.16416 19.16203 1.00000 0.00000 0.00000 0.00000 150.00000 0.00000
0.67545 2.27679 0.13463 4.00025 4.13488 0.00000 11.49515 2.81532 2.87379 2.47955 18.04398 19.03912 1.00000 0.00000 0.00000 0.00000 150.00000 0.00000
0.67876 2.29449 0.13366 3.99711 4.13077 0.00000 11.43234 2.79879 2.85809 2.44827 17.92392 18.91622 1.00000 0.00000 0.00000 0.00000 150.00000 0.00000
0.68207 2.31263 0.13270 3.99396 4.12666 0.00000 11.36953 2.78225 2.84238 2.41738 17.80397 18.79331 1.00000 0.00000 0.00000 0.00000 150.00000 0.00000
0.68538 2.33121 0.13176 3.99129 4.12305 0.00000 11.30792 2.76669 2.82698 2.38713 17.69259 18.67505 1.00000 0.00000 0.00000 0.00000 150.00000 0.00000
0.68870 2.35026 0.13082 3.98912 4.11994 0.00000 11.24755 2.75214 2.81189 2.35752 17.58995 18.56154 1.00000 0.00000 0.00000 0.00000 150.00000 0.00000
0.69201 2.36979 0.12990 3.98694 4.11683 0.00000 11.18718 2.73759 2.79679 2.32828 17.48736 18.44802 1.00000 0.00000 0.00000 0.00000 150.00000 0.00000
0.69532 2.38977 0.12898 3.98474 4.11373 0.00000 11.12680 2.72304 2.78170 2.29940 17.38483 18.33451 1.00000 0.00000 0.00000 0.00000 150.00000 0.00000
0.69863 2.41024 0.12808 3.98254 4.11062 0.00000 11.06643 2.70848 2.76661 2.27088 17.28236 18.22100 1.00000 0.00000 0.00000 0.00000 150.00000 0.00000
0.70194 2.43121 0.12718 3.98129 4.10847 0.00000 11.00832 2.69420 2.75208 2.24318 17.18581 18.11596 1.00000 0.00000 0.00000 0.00000 150.00000 0.00000
0.70525 2.45262 0.12630 3.98017 4.10646 0.00000 10.95056 2.67996 2.73764 2.21590 17.09015 18.01220 1.00000 0.00000 0.00000 0.00000 150.00000 0.00000
0.70856 2.47446 0.12542 3.97904 4.10446 0.00000 10.89280 2.66572 2.72320 2.18895 16.99450 17.90844 1.00000 0.00000 0.00000 0.00000 150.00000 0.00000
0.71187 2.49676 0.12456 3.97790 4.10246 0.00000 10.83503 2.65147 2.70876 2.16233 16.89886 17.80468 1.00000 0.00000 0.00000 0.00000 150.00000 0.00000
0.71518 2.51950 0.12370 3.97703 4.10074 0.00000 10.77797 2.63728 2.69449 2.13618 16.80475 17.70337 1.00000 0.00000 0.00000 0.00000 150.00000 0.00000
0.71849 2.54265 0.12286 3.97704 4.09990 0.00000 10.72304 2.62324 2.68076 2.11077 16.71531 17.60960 1.00000 0.00000 0.00000 0.00000 150.00000 0.00000
0.72181 2.56622 0.12202 3.97703 4.09906 0.00000 10.66811 2.60920 2.66703 2.08568 16.62583 17.51583 1.00000 0.00000 0.00000 0.00000 150.00000 0.00000
0.72512 2.59029 0.12120 3.97702 4.09822 0.00000 10.61319 2.59516 2.65330 2.06089 16.53631 17.42206 1.00000 0.00000 0.00000 0.00000 150.00000 0.00000
0.72843 2.61494 0.12038 3.97699 4.09737 0.00000 10.55826 2.58112 2.63957 2.03641 16.44675 17.32829 1.00000 0.00000 0.00000 0.00000 150.00000 0.00000
0.73174 2.64021 0.11957 3.97758 4.09715 0.00000 10.50539 2.56731 2.62635 2.01261 16.36114 17.24053 1.00000 0.00000 0.00000 0.00000 150.00000 0.00000
0.73505 2.66605 0.11877 3.97853 4.09731 0.00000 10.45378 2.55363 2.61344 1.98935 16.27790 17.15647 1.00000 0.00000 0.00000 0.00000 150.00000 0.00000
0.73836 2.69240 0.11798 3.97948 4.09746 0.00000 10.40217 2.53996 2.60054 1.96637 16.19458 17.07241 1.00000 0.00000 0.00000 0.00000 150.00000 0.00000
0.74167 2.71928 0.11720 3.98041 4.09761 0.00000 10.35056 2.52629 2.58764 1.94367 16.11118 16.98835 1.00000 0.00000 0.00000 0.00000 150.00000 0.00000
0.74498 2.74671 0.11643 3.98134 4.09777 0.00000 10.29895 2.51261 2.57474 1.92124 16.02771 16.90429 1.00000 0.00000 0.00000 0.00000 150.00000 0.00000
0.74829 2.77466 0.11567 3.98300 4.09867 0.00000 10.25118 2.50068 2.56279 1.89979 15.95829 16.82953 1.00000 0.00000 0.00000 0.00000 150.00000 0.00000
0.75161 2.80313 0.11491 3.98466 4.09958 0.00000 10.20343 2.48876 2.55086 1.87860 15.88884 16.75481 1.00000 0.00000 0.00000 0.00000 150.00000 0.00000
0.75492 2.83214 0.11417 3.98632 4.10048 0.00000 10.15568 2.47684 2.53892 1.85767 15.81929 16.68010 1.00000 0.00000 0.00000 0.00000 150.00000 0.00000
0.75823 2.86170 0.11343 3.98796 4.10139 0.00000 10.10793 2.46492 2.52698 1.83699 15.74965 16.60539 1.00000 0.00000 0.00000 0.00000 150.00000 0.00000
0.76154 2.89178 0.11270 3.98977 4.10247 0.00000 10.06164 2.45281 2.51541 1.81682 15.67936 16.53370 1.00000 0.00000 0.00000 0.00000 150.00000 0.00000
0.76485 2.92239 0.11198 3.99186 4.10384 0.00000 10.01783 2.44037 2.50446 1.79733 15.60800 16.46714 1.00000 0.00000 0.00000 0.00000 150.00000 0.00000
0.76816 2.95356 0.11127 3.99395 4.10521 0.00000 9.97402 2.42792 2.49350 1.77808 15.53652 16.40058 1.00000 0.00000 0.00000 0.00000 150.00000 0.00000
0.77147 2.98530 0.11056 3.99602 4.10659 0.00000 9.93021 2.41548 2.48255 1.75905 15.46493 16.33402 1.00000 0.00000 0.00000 0.00000 150.00000 0.00000
0.77478 3.01762 0.10986 3.99809 4.10796 0.00000 9.88640 2.40304 2.47160 1.74025 15.39323 16.26747 1.00000 0.00000 0.00000 0.00000 150.00000 0.00000
0.77809 3.05051 0.10918 4.00024 4.10941 0.00000 9.84507 2.38852 2.46127 1.72211 15.30846 16.20516 1.00000 0.00000 0.00000 0.00000 150.00000 0.00000
0.78140 3.08406 0.10849 4.00240 4.11090 0.00000 9.80459 2.37330 2.45115 1.70432 15.21914 16.14431 1.00000 0.00000 0.00000 0.00000 150.00000 0.00000
0.78472 3.11836 0.10782 4.00456 4.11238 0.00000 9.76412 2.35808 2.44103 1.68674 15.12968 16.08346 1.00000 0.00000 0.00000 0.00000 150.00000 0.00000
0.78803 3.15351 0.10715 4.00671 4.11386 0.00000 9.72364 2.34286 2.43091 1.66937 15.04009 16.02261 1.00000 0.00000 0.00000 0.00000 150.00000 0.00000
0.79134 3.18941 0.10650 4.00882 4.11531 0.00000 9.68347 2.32685 2.42087 1.65226 14.94521 15.96211 1.00000 0.00000 0.00000 0.00000 150.00000 0.00000
0.79465 3.22591 0.10584 4.01068 4.11652 0.00000 9.64555 2.30514 2.41139 1.63572 14.81262 15.90422 1.00000 0.00000 0.00000 0.00000 150.00000 0.00000
0.79796 3.26288 0.10520 4.01253 4.11773 0.00000 9.60763 2.28343 2.40191 1.61938 14.67988 15.84632 1.00000 0.00000 0.00000 0.00000 150.00000 0.00000
0.80127 3.30036 0.10456 4.01438 4.11894 0.00000 9.56971 2.26172 2.39243 1.60323 14.54698 15.78842 1.00000 0.00000 0.00000 0.00000 150.00000 0.00000
0.80458 3.33847 0.10393 4.01622 4.12015 0.00000 9.53179 2.24000 2.38295 1.58726 14.41393 15.73053 1.00000 0.00000 0.00000 0.00000 150.00000 0.00000
0.80789 3.37731 0.10331 4.01762 4.12093 0.00000 9.49432 2.22326 2.37358 1.57156 14.31121 15.67168 1.00000 0.00000 0.00000 0.00000 150.00000 0.00000
0.81120 3.41694 0.10270 4.01858 4.12128 0.00000 9.45730 2.21157 2.36432 1.55610 14.23936 15.61187 1.00000 0.00000 0.00000 0.00000 150.00000 0.00000
0.81452 3.45736 0.10209 4.01954 4.12162 0.00000 9.42028 2.19988 2.35507 1.54083 14.16744 15.55206 1.00000 0.00000 0.00000 0.00000 150.00000 0.00000
0.81783 3.49850 0.10149 4.02048 4.12197 0.00000 9.38326 2.18819 2.34581 1.52573 14.09546 15.49225 1.00000 0.00000 0.00000 0.00000 150.00000 0.00000
0.82114 3.54028 0.10089 4.02142 4.12231 0.00000 9.34624 2.17650 2.33656 1.51081 14.02343 15.43244 1.00000 0.00000 0.00000 0.00000 150.00000 0.00000
0.82445 3.58269 0.10030 4.02101 4.12131 0.00000 9.30822 2.14963 2.32705 1.49589 13.84889 15.36599 1.00000 0.00000 0.00000 0.00000 150.00000 0.00000
0.82776 3.62578 0.09972 4.02039 4.12011 0.00000 9.27004 2.12052 2.31751 1.48112 13.65929 15.29855 1.00000 0.00000 0.00000 0.00000 150.00000 0.00000
0.83107 3.66960 0.09915 4.01976 4.11891 0.00000 9.23187 2.09142 2.30797 1.46652 13.46972 15.23111 1.00000 0.00000 0.00000 0.00000 150.00000 0.00000
0.83438 3.71420 0.09858 4.01913 4.11771 0.00000 9.19370 2.06232 2.29842 1.45208 13.28019 15.16367 1.00000 0.00000 0.00000 0.00000 150.00000 0.00000
0.83769 3.75969 0.09802 4.01791 4.11592 0.00000 9.15464 2.03688 2.28866 1.43767 13.11242 15.09272 1.00000 0.00000 0.00000 0.00000 150.00000 0.00000
0.84100 3.80605 0.09746 4.01489 4.11235 0.00000 9.11290 2.02265 2.27822 1.42300 13.01102 15.01104 1.00000 0.00000 0.00000 0.00000 150.00000 0.00000
0.84431 3.85311 0.09691 4.01187 4.10878 0.00000 9.07115 2.00842 2.26779 1.40850 12.90974 14.92936 1.00000 0.00000 0.00000 0.00000 150.00000 0.00000
0.84763 3.90070 0.09637 4.00884 4.10521 0.00000 9.02941 1.99419 2.25735 1.39415 12.80858 14.84769 1.00000 0.00000 0.00000 0.00000 150.00000 0.00000
0.85094 3.94873 0.09583 4.00580 4.10164 0.00000 8.98766 1.97995 2.24691 1.37998 12.70754 14.76601 1.00000 0.00000 0.00000 0.00000 150.00000 0.00000
0.85425 3.99729 0.09530 4.00060 4.09590 0.00000 8.94173 1.96497 2.23543 1.36531 12.59496 14.67025 1.00000 0.00000 0.00000 0.00000 150.00000 0.00000
0.85756 4.04647 0.09478 3.99407 4.08885 0.00000 8.89325 1.94952 2.22331 1.35043 12.47556 14.56594 1.00000 0.00000 0.00000 0.00000 150.00000 0.00000
0.86087 4.09632 0.09426 3.98754 4.08180 0.00000 8.84478 1.93407 2.21120 1.33571 12.35647 14.46162 1.00000 0.00000 0.00000 0.00000 150.00000 0.00000
0.86418 4.14690 0.09374 3.98101 4.07475 0.00000 8.79631 1.91862 2.19908 1.32116 12.23769 14.35731 1.00000 0.00000 0.00000 0.00000 150.00000 0.00000
0.86749 4.19824 0.09324 3.97446 4.06770 0.00000 8.74784 1.90318 2.18696 1.30677 12.11921 14.25299 1.00000 0.00000 0.00000 0.00000 150.00000 0.00000
0.87080 4.25027 0.09273 3.96320 4.05593 0.00000 8.68909 1.91048 2.17227 1.29101 12.13122 14.11732 1.00000 0.00000 0.00000 0.00000 150.00000 0.00000
0.87411 4.30292 0.09224 3.95191 4.04415 0.00000 8.63031 1.91784 2.15758 1.27541 12.14328 13.98157 1.00000 0.00000 0.00000 0.00000 150.00000 0.00000
0.87742 4.35611 0.09175 3.94063 4.03237 0.00000 8.57154 1.92519 2.14288 1.25999 12.15505 13.84582 1.00000 0.00000 0.00000 0.00000 150.00000 0.00000
0.88074 4.40994 0.09126 3.92933 4.02059 0.00000 8.51276 1.93255 2.12819 1.24474 12.16654 13.71007 1.00000 0.00000 0.00000 0.00000 150.00000 0.00000
0.88405 4.46440 0.09078 3.91535 4.00613 0.00000 8.44744 1.93041 2.11186 1.22869 12.10980 13.55615 1.00000 0.00000 0.00000 0.00000 150.00000 0.00000
0.88736 4.51942 0.09031 3.89685 3.98715 0.00000 8.37109 1.91228 2.09277 1.21123 11.93939 13.37167 1.00000 0.00000 0.00000 0.00000 150.00000 0.00000
0.89067 4.57490 0.08984 3.87834 3.96818 0.00000 8.29473 1.89415 2.07368 1.19395 11.77003 13.18719 1.00000 0.00000 0.00000 0.00000 150.00000 0.00000
0.89398 4.63080 0.08938 3.85982 3.94920 0.00000 8.21838 1.87603 2.05460 1.17686 11.60173 13.00271 1.00000 0.00000 0.00000 0.00000 150.00000 0.00000
0.89729 4.68722 0.08892 3.84130 3.93022 0.00000 8.14203 1.85790 2.03551 1.15995 11.43450 12.81822 1.00000 0.00000 0.00000 0.00000 150.00000 0.00000
0.90060 4.74412 0.08846 3.81497 3.90344 0.00000 8.04536 1.85762 2.01134 1.14033 11.35443 12.58263 1.00000 0.00000 0.00000 0.00000 150.00000 0.00000
0.90391 4.80144 0.08802 3.78601 3.87403 0.00000 7.94184 1.86335 1.98546 1.11996 11.30300 12.32982 1.00000 0.00000 0.00000 0.00000 150.00000 0.00000
0.90722 4.85914 0.08757 3.75704 3.84462 0.00000 7.83833 1.86909 1.95958 1.09980 11.25104 12.07702 1.00000 0.00000 0.00000 0.00000 150.00000 0.00000
0.91054 4.91722 0.08714 3.72807 3.81521 0.00000 7.73481 1.87482 1.93370 1.07985 11.19852 11.82421 1.00000 0.00000 0.00000 0.00000 150.00000 0.00000
0.91385 4.97578 0.08670 3.69736 3.78406 0.00000 7.62642 1.87645 1.90660 1.05942 11.11590 11.56079 1.00000 0.00000 0.00000 0.00000 150.00000 0.00000
0.91716 5.03472 0.08627 3.65430 3.74057 0.00000 7.48336 1.84892 1.87084 1.03442 10.82528 11.22202 1.00000 0.00000 0.00000 0.00000 150.00000 0.00000
0.92047 5.09395 0.08585 3.61123 3.69708 0.00000 7.34031 1.82140 1.83508 1.00966 10.53844 10.88324 1.00000 0.00000 0.00000 0.00000 150.00000 0.00000
0.92378 5.15335 0.08543 3.56816 3.65359 0.00000 7.19725 1.79387 1.79931 0.98516 10.25538 10.54446 1.00000 0.00000 0.00000 0.00000 150.00000 0.00000
0.92709 5.21269 0.08502 3.52508 3.61010 0.00000 7.05419 1.76635 1.76355 0.96090 9.97611 10.20569 1.00000 0.00000 0.00000 0.00000 150.00000 0.00000
0.93040 5.27181 0.08461 3.47258 3.55719 0.00000 6.88139 1.73862 1.72035 0.93285 9.67328 9.81524 1.00000 0.00000 0.00000 0.00000 150.00000 0.00000
0.93371 5.33116 0.08420 3.41061 3.49482 0.00000 6.67868 1.71069 1.66967 0.90104 9.34806 9.37287 1.00000 0.00000 0.00000 0.00000 150.00000 0.00000
0.93702 5.39122 0.08380 3.34864 3.43245 0.00000 6.47597 1.68277 1.61899 0.86954 9.02837 8.93049 1.00000 0.00000 0.00000 0.00000 150.00000 0.00000
0.94033 5.45246 0.08341 3.28667 3.37008 0.00000 6.27326 1.65484 1.56831 0.83835 8.71422 8.48812 1.00000 0.00000 0.00000 0.00000 150.00000 0.00000
0.94365 5.51523 0.08302 3.22469 3.30771 0.00000 6.07055 1.62691 1.51764 0.80746 8.40560 8.04574 1.00000 0.00000 0.00000 0.00000 150.00000 0.00000
0.94696 5.57917 0.08263 3.14183 3.22447 0.00000 5.79694 1.57159 1.44923 0.76747 7.91112 7.51924 1.00000 0.00000 0.00000 0.00000 150.00000 0.00000
0.95027 5.64422 0.08225 3.05597 3.13822 0.00000 5.51312 1.51231 1.37828 0.72652 7.40469 6.98061 1.00000 0.00000 0.00000 0.00000 150.00000 0.00000
0.95358 5.71038 0.08187 2.97010 3.05197 0.00000 5.22930 1.45304 1.30732 0.68595 6.91455 6.44198 1.00000 0.00000 0.00000 0.00000 150.00000 0.00000
0.95689 5.77765 0.08150 2.88423 2.96572 0.00000 4.94548 1.39376 1.23637 0.64576 6.44072 5.90335 1.00000 0.00000 0.00000 0.00000 150.00000 0.00000
0.96020 5.84589 0.08113 2.79115 2.87228 0.00000 4.63608 1.32416 1.15902 0.60261 5.92161 5.35320 1.00000 0.00000 0.00000 0.00000 150.00000 0.00000
0.96351 5.90903 0.08076 2.67639 2.75716 0.00000 4.24969 1.22348 1.06242 0.54990 5.24642 4.76840 1.00000 0.00000 0.00000 0.00000 150.00000 0.00000
0.96682 5.96848 0.08040 2.56164 2.64204 0.00000 3.86330 1.12280 0.96582 0.49767 4.60825 4.18360 1.00000 0.00000 0.00000 0.00000 150.00000 0.00000
0.97013 6.03077 0.08004 2.44687 2.52692 0.00000 3.47691 1.02212 0.86923 0.44590 4.00709 3.59880 1.00000 0.00000 0.00000 0.00000 150.00000 0.00000
0.97344 6.10247 0.07969 2.33211 2.41180 0.00000 3.09052 0.92144 0.77263 0.39460 3.44295 3.01400 1.00000 0.00000 0.00000 0.00000 150.00000 0.00000
0.97676 6.19011 0.07934 2.19618 2.27552 0.00000 2.65131 0.78800 0.65666 0.33704 2.77274 2.47020 1.00000 0.00000 0.00000 0.00000 150.00000 0.00000
0.98007 6.30347 0.07900 2.04753 2.12653 0.00000 2.18037 0.63487 0.52906 0.27597 2.08274 1.95104 1.00000 0.00000 0.00000 0.00000 150.00000 0.00000
0.98338 6.46596 0.07866 1.89889 1.97754 0.00000 1.70942 0.48175 0.40146 0.21543 1.46567 1.43188 1.00000 0.00000 0.00000 0.00000 150.00000 0.00000
0.98669 6.67582 0.07832 1.75023 1.82855 0.00000 1.23847 0.32862 0.27385 0.15541 0.92154 0.91272 1.00000 0.00000 0.00000 0.00000 150.00000 0.00000
0.99000 6.92671 0.07798 1.60158 1.67956 0.00000 0.76753 0.17550 0.14625 0.09590 0.45034 0.39356 1.00000 0.00000 0.00000 0.00000 150.00000 0.00000
